%OpenBCI Raw EEG Data
%Number of channels = 4
%Sample Rate = 200.0 Hz
%First Column = SampleIndex
%Last Column = Timestamp 
%Other Columns = EEG data in microvolts followed by Accel Data (in G) interleaved with Aux Data
0, -404.53, -616.75, -320.89, -283.66, 0.000, 0.000, 0.000, 22:07:24.020, 1560456444020
1, -420.73, -559.57, -312.77, -283.27, 0.000, 0.000, 0.000, 22:07:24.066, 1560456444066
2, -430.28, -606.93, -274.84, -263.54, 0.000, 0.000, 0.000, 22:07:24.066, 1560456444066
3, -440.42, -667.53, -284.52, -272.26, 0.000, 0.000, 0.000, 22:07:24.067, 1560456444067
4, -430.90, -646.55, -276.90, -282.86, 0.000, 0.000, 0.000, 22:07:24.067, 1560456444067
5, -429.12, -569.39, -311.50, -279.31, 0.000, 0.000, 0.000, 22:07:24.068, 1560456444068
6, -440.49, -604.58, -301.25, -272.25, 0.000, 0.000, 0.000, 22:07:24.068, 1560456444068
7, -439.62, -661.58, -294.62, -276.05, 0.000, 0.000, 0.000, 22:07:24.069, 1560456444069
8, -444.37, -637.40, -307.11, -284.41, 0.000, 0.000, 0.000, 22:07:24.069, 1560456444069
9, -429.53, -562.74, -293.17, -278.11, 0.000, 0.000, 0.000, 22:07:24.112, 1560456444112
10, -438.66, -604.83, -316.93, -279.80, 0.000, 0.000, 0.000, 22:07:24.112, 1560456444112
11, -452.91, -669.52, -285.87, -272.42, 0.000, 0.000, 0.000, 22:07:24.113, 1560456444113
12, -440.65, -631.10, -339.45, -286.35, 0.000, 0.000, 0.000, 22:07:24.113, 1560456444113
13, -435.27, -563.61, -296.29, -283.48, 0.000, 0.000, 0.000, 22:07:24.114, 1560456444114
14, -435.47, -603.03, -282.84, -267.25, 0.000, 0.000, 0.000, 22:07:24.114, 1560456444114
15, -425.39, -655.99, -270.35, -270.45, 0.000, 0.000, 0.000, 22:07:24.114, 1560456444114
16, -439.77, -636.70, -287.44, -289.85, 0.000, 0.000, 0.000, 22:07:24.114, 1560456444114
17, -426.37, -558.39, -301.75, -270.58, 0.000, 0.000, 0.000, 22:07:24.139, 1560456444139
18, -432.53, -596.36, -315.64, -272.71, 0.000, 0.000, 0.000, 22:07:24.139, 1560456444139
19, -439.04, -646.50, -308.15, -282.33, 0.000, 0.000, 0.000, 22:07:24.156, 1560456444156
20, -427.86, -620.36, -298.36, -272.83, 0.000, 0.000, 0.000, 22:07:24.156, 1560456444156
21, -425.05, -557.31, -284.59, -280.60, 0.000, 0.000, 0.000, 22:07:24.157, 1560456444157
22, -433.96, -593.94, -288.94, -276.10, 0.000, 0.000, 0.000, 22:07:24.157, 1560456444157
23, -430.76, -650.67, -295.11, -259.26, 0.000, 0.000, 0.000, 22:07:24.171, 1560456444171
24, -436.79, -624.66, -301.13, -283.74, 0.000, 0.000, 0.000, 22:07:24.171, 1560456444171
25, -421.98, -548.44, -314.71, -278.31, 0.000, 0.000, 0.000, 22:07:24.171, 1560456444171
26, -419.87, -586.03, -293.21, -261.45, 0.000, 0.000, 0.000, 22:07:24.171, 1560456444171
27, -434.27, -647.29, -296.96, -267.85, 0.000, 0.000, 0.000, 22:07:24.172, 1560456444172
28, -435.61, -626.67, -294.05, -286.28, 0.000, 0.000, 0.000, 22:07:24.172, 1560456444172
29, -435.41, -567.10, -298.42, -283.09, 0.000, 0.000, 0.000, 22:07:24.173, 1560456444173
30, -455.57, -612.15, -297.05, -273.11, 0.000, 0.000, 0.000, 22:07:24.173, 1560456444173
31, -444.06, -667.08, -296.77, -278.11, 0.000, 0.000, 0.000, 22:07:24.184, 1560456444184
32, -424.06, -635.32, -301.95, -277.06, 0.000, 0.000, 0.000, 22:07:24.184, 1560456444184
33, -417.90, -569.61, -296.23, -280.86, 0.000, 0.000, 0.000, 22:07:24.215, 1560456444215
34, -426.83, -603.07, -282.46, -268.30, 0.000, 0.000, 0.000, 22:07:24.215, 1560456444215
35, -446.76, -662.58, -307.30, -266.83, 0.000, 0.000, 0.000, 22:07:24.216, 1560456444216
36, -426.44, -622.16, -288.25, -286.31, 0.000, 0.000, 0.000, 22:07:24.216, 1560456444216
37, -432.51, -563.61, -333.84, -290.30, 0.000, 0.000, 0.000, 22:07:24.217, 1560456444217
38, -428.93, -594.48, -306.33, -266.52, 0.000, 0.000, 0.000, 22:07:24.217, 1560456444217
39, -443.07, -655.14, -303.84, -264.36, 0.000, 0.000, 0.000, 22:07:24.229, 1560456444229
40, -425.87, -632.88, -290.58, -282.38, 0.000, 0.000, 0.000, 22:07:24.229, 1560456444229
41, -436.57, -560.34, -299.52, -283.50, 0.000, 0.000, 0.000, 22:07:24.230, 1560456444230
42, -433.48, -597.10, -297.27, -274.70, 0.000, 0.000, 0.000, 22:07:24.230, 1560456444230
43, -442.69, -663.46, -278.46, -275.85, 0.000, 0.000, 0.000, 22:07:24.244, 1560456444244
44, -443.52, -638.09, -291.12, -276.36, 0.000, 0.000, 0.000, 22:07:24.244, 1560456444244
45, -438.82, -568.62, -290.80, -280.45, 0.000, 0.000, 0.000, 22:07:24.275, 1560456444275
46, -431.50, -600.20, -299.15, -272.73, 0.000, 0.000, 0.000, 22:07:24.275, 1560456444275
47, -451.76, -671.84, -303.20, -275.17, 0.000, 0.000, 0.000, 22:07:24.276, 1560456444276
48, -439.00, -645.25, -294.47, -294.89, 0.000, 0.000, 0.000, 22:07:24.276, 1560456444276
49, -432.68, -576.85, -320.51, -281.12, 0.000, 0.000, 0.000, 22:07:24.276, 1560456444276
50, -440.73, -612.08, -292.09, -270.97, 0.000, 0.000, 0.000, 22:07:24.276, 1560456444276
51, -448.08, -673.94, -276.50, -278.04, 0.000, 0.000, 0.000, 22:07:24.289, 1560456444289
52, -448.78, -649.59, -276.81, -292.05, 0.000, 0.000, 0.000, 22:07:24.289, 1560456444289
53, -430.24, -575.73, -307.20, -281.54, 0.000, 0.000, 0.000, 22:07:24.337, 1560456444337
54, -443.37, -613.40, -317.89, -285.59, 0.000, 0.000, 0.000, 22:07:24.337, 1560456444337
55, -450.05, -667.01, -296.33, -279.86, 0.000, 0.000, 0.000, 22:07:24.337, 1560456444337
56, -434.33, -644.91, -284.70, -280.60, 0.000, 0.000, 0.000, 22:07:24.337, 1560456444337
57, -433.60, -571.39, -292.82, -276.70, 0.000, 0.000, 0.000, 22:07:24.338, 1560456444338
58, -432.91, -598.16, -275.12, -270.19, 0.000, 0.000, 0.000, 22:07:24.338, 1560456444338
59, -440.90, -662.20, -314.24, -275.02, 0.000, 0.000, 0.000, 22:07:24.339, 1560456444339
60, -438.52, -642.79, -319.40, -291.21, 0.000, 0.000, 0.000, 22:07:24.339, 1560456444339
61, -433.55, -566.56, -314.99, -286.23, 0.000, 0.000, 0.000, 22:07:24.350, 1560456444350
62, -432.39, -600.50, -306.47, -267.94, 0.000, 0.000, 0.000, 22:07:24.350, 1560456444350
63, -436.16, -656.48, -326.48, -278.80, 0.000, 0.000, 0.000, 22:07:24.351, 1560456444351
64, -437.91, -630.33, -302.25, -294.13, 0.000, 0.000, 0.000, 22:07:24.351, 1560456444351
65, -434.25, -574.66, -313.71, -276.71, 0.000, 0.000, 0.000, 22:07:24.351, 1560456444351
66, -439.73, -596.22, -302.70, -277.31, 0.000, 0.000, 0.000, 22:07:24.351, 1560456444351
67, -437.07, -651.43, -299.64, -277.95, 0.000, 0.000, 0.000, 22:07:24.380, 1560456444380
68, -440.21, -633.89, -295.78, -280.75, 0.000, 0.000, 0.000, 22:07:24.380, 1560456444380
69, -415.81, -555.18, -304.47, -273.05, 0.000, 0.000, 0.000, 22:07:24.381, 1560456444381
70, -435.46, -592.70, -278.09, -267.72, 0.000, 0.000, 0.000, 22:07:24.381, 1560456444381
71, -429.65, -652.32, -290.28, -259.42, 0.000, 0.000, 0.000, 22:07:24.381, 1560456444381
72, -437.73, -643.94, -316.60, -288.42, 0.000, 0.000, 0.000, 22:07:24.381, 1560456444381
73, -421.83, -577.25, -318.10, -294.66, 0.000, 0.000, 0.000, 22:07:24.394, 1560456444394
74, -425.04, -599.01, -280.69, -265.96, 0.000, 0.000, 0.000, 22:07:24.394, 1560456444394
75, -439.68, -655.15, -296.75, -269.42, 0.000, 0.000, 0.000, 22:07:24.410, 1560456444410
76, -430.68, -637.41, -285.38, -285.53, 0.000, 0.000, 0.000, 22:07:24.410, 1560456444410
77, -438.08, -568.24, -334.84, -275.78, 0.000, 0.000, 0.000, 22:07:24.410, 1560456444410
78, -431.77, -604.51, -286.72, -266.09, 0.000, 0.000, 0.000, 22:07:24.410, 1560456444410
79, -437.55, -663.15, -285.52, -270.63, 0.000, 0.000, 0.000, 22:07:24.441, 1560456444441
80, -437.24, -633.97, -292.05, -275.87, 0.000, 0.000, 0.000, 22:07:24.441, 1560456444441
81, -409.49, -565.83, -318.30, -281.22, 0.000, 0.000, 0.000, 22:07:24.441, 1560456444441
82, -430.80, -605.15, -289.34, -277.31, 0.000, 0.000, 0.000, 22:07:24.441, 1560456444441
83, -432.16, -655.43, -285.09, -261.20, 0.000, 0.000, 0.000, 22:07:24.455, 1560456444455
84, -421.57, -630.92, -296.14, -283.62, 0.000, 0.000, 0.000, 22:07:24.455, 1560456444455
85, -421.72, -563.71, -292.91, -281.16, 0.000, 0.000, 0.000, 22:07:24.456, 1560456444456
86, -428.71, -596.19, -300.89, -266.81, 0.000, 0.000, 0.000, 22:07:24.456, 1560456444456
87, -430.63, -657.75, -299.99, -272.49, 0.000, 0.000, 0.000, 22:07:24.501, 1560456444501
88, -403.72, -626.18, -303.45, -273.76, 0.000, 0.000, 0.000, 22:07:24.501, 1560456444501
89, -408.03, -548.67, -323.03, -265.90, 0.000, 0.000, 0.000, 22:07:24.502, 1560456444502
90, -425.59, -585.61, -296.58, -265.52, 0.000, 0.000, 0.000, 22:07:24.502, 1560456444502
91, -427.67, -655.31, -278.79, -275.93, 0.000, 0.000, 0.000, 22:07:24.503, 1560456444503
92, -429.14, -632.28, -288.10, -281.67, 0.000, 0.000, 0.000, 22:07:24.503, 1560456444503
93, -425.67, -567.21, -300.27, -278.01, 0.000, 0.000, 0.000, 22:07:24.504, 1560456444504
94, -416.16, -594.06, -302.16, -258.39, 0.000, 0.000, 0.000, 22:07:24.504, 1560456444504
95, -420.61, -655.52, -295.94, -262.96, 0.000, 0.000, 0.000, 22:07:24.562, 1560456444562
96, -416.50, -627.40, -302.79, -278.20, 0.000, 0.000, 0.000, 22:07:24.562, 1560456444562
97, -410.37, -557.56, -324.59, -284.39, 0.000, 0.000, 0.000, 22:07:24.562, 1560456444562
98, -403.79, -578.06, -326.37, -260.29, 0.000, 0.000, 0.000, 22:07:24.562, 1560456444562
99, -402.91, -648.31, -308.53, -270.11, 0.000, 0.000, 0.000, 22:07:24.563, 1560456444563
100, -415.43, -631.06, -329.51, -284.76, 0.000, 0.000, 0.000, 22:07:24.563, 1560456444563
101, -418.14, -561.36, -302.46, -284.11, 0.000, 0.000, 0.000, 22:07:24.563, 1560456444563
102, -428.26, -584.80, -303.60, -268.39, 0.000, 0.000, 0.000, 22:07:24.563, 1560456444563
103, -430.59, -654.47, -281.64, -266.74, 0.000, 0.000, 0.000, 22:07:24.576, 1560456444576
104, -425.54, -641.48, -292.54, -279.28, 0.000, 0.000, 0.000, 22:07:24.576, 1560456444576
105, -422.87, -568.81, -310.41, -283.39, 0.000, 0.000, 0.000, 22:07:24.576, 1560456444576
106, -416.70, -598.42, -303.78, -271.34, 0.000, 0.000, 0.000, 22:07:24.576, 1560456444576
107, -419.79, -658.27, -305.09, -263.84, 0.000, 0.000, 0.000, 22:07:24.607, 1560456444607
108, -419.43, -632.13, -293.66, -283.36, 0.000, 0.000, 0.000, 22:07:24.607, 1560456444607
109, -412.77, -553.67, -307.89, -270.98, 0.000, 0.000, 0.000, 22:07:24.608, 1560456444608
110, -412.98, -586.66, -305.32, -264.16, 0.000, 0.000, 0.000, 22:07:24.608, 1560456444608
111, -416.10, -654.55, -284.65, -262.66, 0.000, 0.000, 0.000, 22:07:24.609, 1560456444609
112, -424.23, -639.60, -316.67, -282.66, 0.000, 0.000, 0.000, 22:07:24.609, 1560456444609
113, -411.99, -562.43, -294.68, -273.39, 0.000, 0.000, 0.000, 22:07:24.609, 1560456444609
114, -414.90, -590.65, -318.52, -269.15, 0.000, 0.000, 0.000, 22:07:24.609, 1560456444609
115, -437.07, -658.94, -301.80, -275.19, 0.000, 0.000, 0.000, 22:07:24.620, 1560456444620
116, -422.52, -631.78, -282.69, -272.12, 0.000, 0.000, 0.000, 22:07:24.620, 1560456444620
117, -406.46, -559.20, -301.85, -269.50, 0.000, 0.000, 0.000, 22:07:24.621, 1560456444621
118, -423.33, -591.20, -291.25, -266.93, 0.000, 0.000, 0.000, 22:07:24.621, 1560456444621
119, -428.84, -661.53, -290.70, -260.65, 0.000, 0.000, 0.000, 22:07:24.622, 1560456444622
120, -436.51, -646.62, -303.58, -299.02, 0.000, 0.000, 0.000, 22:07:24.622, 1560456444622
121, -415.66, -566.33, -296.79, -284.28, 0.000, 0.000, 0.000, 22:07:24.666, 1560456444666
122, -418.02, -587.40, -297.33, -259.70, 0.000, 0.000, 0.000, 22:07:24.666, 1560456444666
123, -428.04, -654.42, -292.80, -268.70, 0.000, 0.000, 0.000, 22:07:24.667, 1560456444667
124, -413.72, -630.92, -304.19, -283.43, 0.000, 0.000, 0.000, 22:07:24.667, 1560456444667
125, -410.04, -558.89, -325.99, -279.44, 0.000, 0.000, 0.000, 22:07:24.668, 1560456444668
126, -418.53, -588.51, -298.64, -267.38, 0.000, 0.000, 0.000, 22:07:24.668, 1560456444668
127, -420.86, -645.88, -284.39, -262.00, 0.000, 0.000, 0.000, 22:07:24.668, 1560456444668
128, -406.36, -616.79, -300.77, -268.44, 0.000, 0.000, 0.000, 22:07:24.669, 1560456444669
129, -384.10, -531.21, -301.94, -263.18, 0.000, 0.000, 0.000, 22:07:24.711, 1560456444711
130, -389.70, -561.13, -297.91, -264.56, 0.000, 0.000, 0.000, 22:07:24.711, 1560456444711
131, -370.99, -619.98, -259.00, -248.49, 0.000, 0.000, 0.000, 22:07:24.727, 1560456444727
132, -352.83, -592.89, -292.94, -252.32, 0.000, 0.000, 0.000, 22:07:24.727, 1560456444727
133, -354.02, -515.50, -306.06, -259.59, 0.000, 0.000, 0.000, 22:07:24.727, 1560456444727
134, -345.49, -538.30, -289.26, -226.82, 0.000, 0.000, 0.000, 22:07:24.727, 1560456444727
135, -336.60, -605.54, -259.27, -228.73, 0.000, 0.000, 0.000, 22:07:24.728, 1560456444728
136, -320.67, -574.10, -244.76, -237.92, 0.000, 0.000, 0.000, 22:07:24.728, 1560456444728
137, -309.00, -514.93, -285.45, -227.43, 0.000, 0.000, 0.000, 22:07:24.729, 1560456444729
138, -307.48, -536.18, -261.32, -210.90, 0.000, 0.000, 0.000, 22:07:24.729, 1560456444729
139, -317.24, -592.06, -270.13, -221.96, 0.000, 0.000, 0.000, 22:07:24.742, 1560456444742
140, -304.11, -564.16, -277.35, -216.73, 0.000, 0.000, 0.000, 22:07:24.742, 1560456444742
141, -299.96, -510.45, -227.92, -221.07, 0.000, 0.000, 0.000, 22:07:24.742, 1560456444742
142, -318.15, -536.92, -285.57, -220.39, 0.000, 0.000, 0.000, 22:07:24.742, 1560456444742
143, -319.12, -602.00, -242.72, -215.81, 0.000, 0.000, 0.000, 22:07:24.742, 1560456444742
144, -324.18, -588.44, -239.71, -228.83, 0.000, 0.000, 0.000, 22:07:24.742, 1560456444742
145, -332.82, -517.88, -264.87, -232.24, 0.000, 0.000, 0.000, 22:07:24.770, 1560456444770
146, -338.18, -537.84, -288.62, -220.82, 0.000, 0.000, 0.000, 22:07:24.770, 1560456444770
147, -348.36, -606.63, -263.19, -237.00, 0.000, 0.000, 0.000, 22:07:24.771, 1560456444771
148, -364.64, -596.67, -271.92, -249.83, 0.000, 0.000, 0.000, 22:07:24.771, 1560456444771
149, -359.05, -524.11, -310.14, -236.96, 0.000, 0.000, 0.000, 22:07:24.771, 1560456444771
150, -360.59, -548.45, -271.63, -238.94, 0.000, 0.000, 0.000, 22:07:24.772, 1560456444772
151, -370.40, -613.88, -242.22, -237.96, 0.000, 0.000, 0.000, 22:07:24.784, 1560456444784
152, -366.08, -589.14, -261.22, -235.25, 0.000, 0.000, 0.000, 22:07:24.784, 1560456444784
153, -364.02, -529.03, -268.73, -242.75, 0.000, 0.000, 0.000, 22:07:24.800, 1560456444800
154, -373.64, -565.79, -289.95, -247.73, 0.000, 0.000, 0.000, 22:07:24.800, 1560456444800
155, -385.16, -635.89, -262.64, -242.96, 0.000, 0.000, 0.000, 22:07:24.832, 1560456444832
156, -356.35, -609.13, -296.82, -252.91, 0.000, 0.000, 0.000, 22:07:24.832, 1560456444832
157, -358.48, -545.99, -303.96, -249.07, 0.000, 0.000, 0.000, 22:07:24.833, 1560456444833
158, -370.19, -566.05, -263.20, -238.23, 0.000, 0.000, 0.000, 22:07:24.833, 1560456444833
159, -371.88, -634.11, -249.68, -244.05, 0.000, 0.000, 0.000, 22:07:24.833, 1560456444833
160, -380.93, -618.28, -266.10, -256.79, 0.000, 0.000, 0.000, 22:07:24.833, 1560456444833
161, -374.73, -535.70, -265.26, -244.62, 0.000, 0.000, 0.000, 22:07:24.834, 1560456444834
162, -380.89, -557.90, -284.83, -239.08, 0.000, 0.000, 0.000, 22:07:24.834, 1560456444834
163, -385.42, -630.64, -286.54, -253.51, 0.000, 0.000, 0.000, 22:07:24.892, 1560456444892
164, -389.18, -617.56, -292.27, -258.95, 0.000, 0.000, 0.000, 22:07:24.892, 1560456444892
165, -396.02, -559.02, -275.65, -258.79, 0.000, 0.000, 0.000, 22:07:24.892, 1560456444892
166, -397.84, -570.06, -245.20, -247.94, 0.000, 0.000, 0.000, 22:07:24.892, 1560456444892
167, -404.97, -638.18, -250.81, -249.42, 0.000, 0.000, 0.000, 22:07:24.893, 1560456444893
168, -394.73, -625.92, -287.88, -262.84, 0.000, 0.000, 0.000, 22:07:24.893, 1560456444893
169, -391.10, -549.64, -276.26, -256.65, 0.000, 0.000, 0.000, 22:07:24.894, 1560456444894
170, -395.13, -579.17, -281.59, -241.99, 0.000, 0.000, 0.000, 22:07:24.894, 1560456444894
171, -406.57, -647.35, -263.91, -251.17, 0.000, 0.000, 0.000, 22:07:24.904, 1560456444904
172, -403.18, -633.73, -262.20, -258.20, 0.000, 0.000, 0.000, 22:07:24.904, 1560456444904
173, -396.41, -555.22, -293.62, -261.92, 0.000, 0.000, 0.000, 22:07:24.938, 1560456444938
174, -396.01, -569.32, -276.25, -248.65, 0.000, 0.000, 0.000, 22:07:24.938, 1560456444938
175, -385.60, -629.43, -286.24, -252.17, 0.000, 0.000, 0.000, 22:07:24.939, 1560456444939
176, -403.08, -615.16, -288.62, -269.95, 0.000, 0.000, 0.000, 22:07:24.939, 1560456444939
177, -394.30, -544.98, -277.94, -258.34, 0.000, 0.000, 0.000, 22:07:24.939, 1560456444939
178, -378.23, -542.46, -328.07, -245.84, 0.000, 0.000, 0.000, 22:07:24.939, 1560456444939
179, -395.37, -623.77, -243.78, -239.82, 0.000, 0.000, 0.000, 22:07:24.940, 1560456444940
180, -386.27, -603.72, -282.76, -261.90, 0.000, 0.000, 0.000, 22:07:24.940, 1560456444940
181, -390.57, -534.47, -269.68, -267.15, 0.000, 0.000, 0.000, 22:07:24.950, 1560456444950
182, -386.65, -554.77, -302.84, -245.46, 0.000, 0.000, 0.000, 22:07:24.950, 1560456444950
183, -385.46, -618.67, -282.42, -239.33, 0.000, 0.000, 0.000, 22:07:24.951, 1560456444951
184, -392.39, -609.28, -290.87, -263.70, 0.000, 0.000, 0.000, 22:07:24.951, 1560456444951
185, -392.16, -541.87, -294.44, -252.93, 0.000, 0.000, 0.000, 22:07:24.952, 1560456444952
186, -407.84, -565.25, -279.73, -261.73, 0.000, 0.000, 0.000, 22:07:24.952, 1560456444952
187, -415.08, -630.70, -296.27, -254.28, 0.000, 0.000, 0.000, 22:07:24.964, 1560456444964
188, -408.37, -621.96, -302.10, -260.11, 0.000, 0.000, 0.000, 22:07:24.964, 1560456444964
189, -406.42, -558.29, -312.52, -272.37, 0.000, 0.000, 0.000, 22:07:24.995, 1560456444995
190, -416.30, -579.04, -279.75, -268.38, 0.000, 0.000, 0.000, 22:07:24.995, 1560456444995
191, -422.41, -646.22, -274.09, -254.13, 0.000, 0.000, 0.000, 22:07:24.996, 1560456444996
192, -426.57, -632.10, -284.50, -272.40, 0.000, 0.000, 0.000, 22:07:24.996, 1560456444996
193, -404.41, -550.99, -310.35, -271.33, 0.000, 0.000, 0.000, 22:07:24.996, 1560456444996
194, -406.99, -573.15, -299.85, -258.27, 0.000, 0.000, 0.000, 22:07:24.996, 1560456444996
195, -411.36, -637.78, -301.24, -265.66, 0.000, 0.000, 0.000, 22:07:25.010, 1560456445010
196, -420.43, -628.07, -298.35, -276.08, 0.000, 0.000, 0.000, 22:07:25.010, 1560456445010
197, -421.28, -565.35, -287.33, -267.15, 0.000, 0.000, 0.000, 22:07:25.026, 1560456445026
198, -437.91, -589.89, -291.84, -263.29, 0.000, 0.000, 0.000, 22:07:25.026, 1560456445026
199, -438.53, -650.54, -266.45, -267.72, 0.000, 0.000, 0.000, 22:07:25.027, 1560456445027
200, -432.40, -633.14, -297.09, -265.60, 0.000, 0.000, 0.000, 22:07:25.027, 1560456445027
0, -420.35, -561.66, -310.03, -276.88, 0.000, 0.000, 0.000, 22:07:25.056, 1560456445056
1, -424.58, -591.71, -267.72, -268.41, 0.000, 0.000, 0.000, 22:07:25.057, 1560456445057
2, -410.65, -651.80, -295.24, -264.52, 0.000, 0.000, 0.000, 22:07:25.057, 1560456445057
3, -417.27, -632.33, -300.73, -273.70, 0.000, 0.000, 0.000, 22:07:25.057, 1560456445057
4, -403.51, -566.65, -309.12, -279.87, 0.000, 0.000, 0.000, 22:07:25.057, 1560456445057
5, -424.20, -586.87, -301.10, -258.61, 0.000, 0.000, 0.000, 22:07:25.058, 1560456445058
6, -435.90, -657.75, -310.38, -270.99, 0.000, 0.000, 0.000, 22:07:25.058, 1560456445058
7, -409.70, -621.58, -295.09, -274.62, 0.000, 0.000, 0.000, 22:07:25.069, 1560456445069
8, -402.26, -553.69, -281.82, -257.21, 0.000, 0.000, 0.000, 22:07:25.069, 1560456445069
9, -397.80, -563.28, -282.40, -252.89, 0.000, 0.000, 0.000, 22:07:25.100, 1560456445100
10, -415.85, -648.30, -271.60, -262.69, 0.000, 0.000, 0.000, 22:07:25.100, 1560456445100
11, -403.92, -624.60, -272.98, -270.44, 0.000, 0.000, 0.000, 22:07:25.101, 1560456445101
12, -393.40, -544.34, -289.83, -265.27, 0.000, 0.000, 0.000, 22:07:25.101, 1560456445101
13, -396.00, -563.69, -296.39, -256.40, 0.000, 0.000, 0.000, 22:07:25.101, 1560456445101
14, -391.00, -624.74, -311.17, -251.55, 0.000, 0.000, 0.000, 22:07:25.101, 1560456445101
15, -391.49, -610.42, -264.45, -260.70, 0.000, 0.000, 0.000, 22:07:25.114, 1560456445114
16, -392.72, -548.09, -277.42, -268.42, 0.000, 0.000, 0.000, 22:07:25.114, 1560456445114
17, -403.71, -563.36, -244.20, -244.85, 0.000, 0.000, 0.000, 22:07:25.115, 1560456445115
18, -401.96, -630.60, -251.37, -248.65, 0.000, 0.000, 0.000, 22:07:25.115, 1560456445115
19, -408.34, -623.63, -275.56, -266.60, 0.000, 0.000, 0.000, 22:07:25.129, 1560456445129
20, -402.56, -554.17, -281.20, -262.43, 0.000, 0.000, 0.000, 22:07:25.129, 1560456445129
21, -406.94, -567.92, -279.85, -255.32, 0.000, 0.000, 0.000, 22:07:25.145, 1560456445145
22, -412.57, -639.18, -297.05, -262.94, 0.000, 0.000, 0.000, 22:07:25.145, 1560456445145
23, -401.29, -615.09, -275.22, -264.06, 0.000, 0.000, 0.000, 22:07:25.159, 1560456445159
24, -408.62, -549.83, -306.45, -263.69, 0.000, 0.000, 0.000, 22:07:25.159, 1560456445159
25, -408.24, -565.05, -297.08, -259.98, 0.000, 0.000, 0.000, 22:07:25.160, 1560456445160
26, -408.52, -639.87, -255.73, -252.38, 0.000, 0.000, 0.000, 22:07:25.160, 1560456445160
27, -406.07, -625.89, -238.97, -256.59, 0.000, 0.000, 0.000, 22:07:25.174, 1560456445174
28, -404.22, -561.43, -263.85, -264.87, 0.000, 0.000, 0.000, 22:07:25.174, 1560456445174
29, -414.07, -578.20, -282.56, -255.33, 0.000, 0.000, 0.000, 22:07:25.175, 1560456445175
30, -423.20, -650.09, -282.54, -254.45, 0.000, 0.000, 0.000, 22:07:25.175, 1560456445175
31, -408.53, -629.20, -279.71, -269.01, 0.000, 0.000, 0.000, 22:07:25.189, 1560456445189
32, -391.69, -545.99, -288.61, -253.73, 0.000, 0.000, 0.000, 22:07:25.189, 1560456445189
33, -389.10, -567.63, -273.62, -245.21, 0.000, 0.000, 0.000, 22:07:25.220, 1560456445220
34, -403.72, -628.49, -300.88, -259.61, 0.000, 0.000, 0.000, 22:07:25.220, 1560456445220
35, -404.02, -621.86, -289.36, -262.80, 0.000, 0.000, 0.000, 22:07:25.221, 1560456445221
36, -406.50, -554.81, -291.74, -266.80, 0.000, 0.000, 0.000, 22:07:25.221, 1560456445221
37, -390.37, -566.28, -309.31, -258.52, 0.000, 0.000, 0.000, 22:07:25.222, 1560456445222
38, -384.62, -620.94, -252.67, -243.82, 0.000, 0.000, 0.000, 22:07:25.222, 1560456445222
39, -396.33, -613.42, -264.37, -260.95, 0.000, 0.000, 0.000, 22:07:25.235, 1560456445235
40, -386.76, -550.98, -295.84, -266.96, 0.000, 0.000, 0.000, 22:07:25.235, 1560456445235
41, -398.88, -565.19, -270.10, -242.59, 0.000, 0.000, 0.000, 22:07:25.235, 1560456445235
42, -412.27, -637.38, -280.10, -263.72, 0.000, 0.000, 0.000, 22:07:25.235, 1560456445235
43, -411.20, -626.67, -295.23, -273.78, 0.000, 0.000, 0.000, 22:07:25.266, 1560456445266
44, -395.40, -541.43, -295.13, -260.23, 0.000, 0.000, 0.000, 22:07:25.266, 1560456445266
45, -402.89, -552.20, -285.73, -249.33, 0.000, 0.000, 0.000, 22:07:25.266, 1560456445266
46, -400.78, -632.84, -276.30, -254.57, 0.000, 0.000, 0.000, 22:07:25.266, 1560456445266
47, -409.51, -623.93, -292.21, -269.04, 0.000, 0.000, 0.000, 22:07:25.267, 1560456445267
48, -395.92, -547.33, -310.81, -266.67, 0.000, 0.000, 0.000, 22:07:25.267, 1560456445267
49, -405.16, -563.06, -299.06, -265.85, 0.000, 0.000, 0.000, 22:07:25.279, 1560456445279
50, -404.12, -632.33, -270.81, -250.65, 0.000, 0.000, 0.000, 22:07:25.279, 1560456445279
51, -396.78, -612.70, -290.18, -261.56, 0.000, 0.000, 0.000, 22:07:25.295, 1560456445295
52, -394.28, -552.12, -302.10, -271.46, 0.000, 0.000, 0.000, 22:07:25.295, 1560456445295
53, -420.96, -579.61, -299.49, -268.13, 0.000, 0.000, 0.000, 22:07:25.295, 1560456445295
54, -417.54, -640.70, -270.98, -257.98, 0.000, 0.000, 0.000, 22:07:25.295, 1560456445295
55, -403.97, -619.89, -302.12, -274.76, 0.000, 0.000, 0.000, 22:07:25.325, 1560456445325
56, -402.76, -551.71, -251.54, -257.90, 0.000, 0.000, 0.000, 22:07:25.325, 1560456445325
57, -405.52, -577.31, -301.69, -256.54, 0.000, 0.000, 0.000, 22:07:25.326, 1560456445326
58, -417.00, -643.98, -285.58, -263.89, 0.000, 0.000, 0.000, 22:07:25.326, 1560456445326
59, -410.67, -624.16, -298.18, -265.66, 0.000, 0.000, 0.000, 22:07:25.327, 1560456445327
60, -395.83, -553.22, -291.86, -269.78, 0.000, 0.000, 0.000, 22:07:25.327, 1560456445327
61, -411.47, -566.74, -273.07, -255.89, 0.000, 0.000, 0.000, 22:07:25.339, 1560456445339
62, -394.88, -623.93, -278.19, -240.92, 0.000, 0.000, 0.000, 22:07:25.339, 1560456445339
63, -387.75, -607.77, -294.23, -256.57, 0.000, 0.000, 0.000, 22:07:25.354, 1560456445354
64, -383.36, -538.30, -312.41, -272.61, 0.000, 0.000, 0.000, 22:07:25.354, 1560456445354
65, -396.71, -565.57, -309.31, -253.52, 0.000, 0.000, 0.000, 22:07:25.355, 1560456445355
66, -416.36, -639.71, -276.49, -270.07, 0.000, 0.000, 0.000, 22:07:25.355, 1560456445355
67, -424.70, -626.29, -274.48, -273.56, 0.000, 0.000, 0.000, 22:07:25.385, 1560456445385
68, -401.52, -552.93, -283.88, -268.46, 0.000, 0.000, 0.000, 22:07:25.385, 1560456445385
69, -398.55, -554.90, -293.30, -246.04, 0.000, 0.000, 0.000, 22:07:25.386, 1560456445386
70, -421.32, -636.51, -287.12, -272.32, 0.000, 0.000, 0.000, 22:07:25.386, 1560456445386
71, -415.35, -624.26, -318.39, -271.33, 0.000, 0.000, 0.000, 22:07:25.386, 1560456445386
72, -412.08, -551.39, -310.94, -279.77, 0.000, 0.000, 0.000, 22:07:25.386, 1560456445386
73, -406.25, -562.39, -316.42, -267.48, 0.000, 0.000, 0.000, 22:07:25.399, 1560456445399
74, -419.13, -635.52, -292.53, -256.67, 0.000, 0.000, 0.000, 22:07:25.399, 1560456445399
75, -403.21, -616.27, -318.27, -264.08, 0.000, 0.000, 0.000, 22:07:25.447, 1560456445447
76, -413.62, -558.36, -272.97, -274.33, 0.000, 0.000, 0.000, 22:07:25.447, 1560456445447
77, -428.50, -577.19, -284.22, -253.01, 0.000, 0.000, 0.000, 22:07:25.447, 1560456445447
78, -419.44, -641.66, -283.93, -256.59, 0.000, 0.000, 0.000, 22:07:25.447, 1560456445447
79, -415.44, -629.01, -282.37, -268.29, 0.000, 0.000, 0.000, 22:07:25.448, 1560456445448
80, -398.31, -552.54, -287.46, -262.82, 0.000, 0.000, 0.000, 22:07:25.448, 1560456445448
81, -406.86, -568.00, -301.45, -264.08, 0.000, 0.000, 0.000, 22:07:25.449, 1560456445449
82, -408.25, -631.08, -300.63, -268.86, 0.000, 0.000, 0.000, 22:07:25.449, 1560456445449
83, -415.56, -615.34, -294.60, -268.51, 0.000, 0.000, 0.000, 22:07:25.459, 1560456445459
84, -404.60, -552.13, -289.66, -256.85, 0.000, 0.000, 0.000, 22:07:25.459, 1560456445459
85, -411.38, -568.66, -303.37, -265.56, 0.000, 0.000, 0.000, 22:07:25.460, 1560456445460
86, -416.77, -636.30, -307.72, -262.37, 0.000, 0.000, 0.000, 22:07:25.460, 1560456445460
87, -402.15, -608.60, -261.32, -256.33, 0.000, 0.000, 0.000, 22:07:25.490, 1560456445490
88, -394.92, -538.44, -301.72, -262.31, 0.000, 0.000, 0.000, 22:07:25.490, 1560456445490
89, -403.96, -571.13, -314.81, -258.03, 0.000, 0.000, 0.000, 22:07:25.491, 1560456445491
90, -410.44, -639.99, -278.96, -261.58, 0.000, 0.000, 0.000, 22:07:25.491, 1560456445491
91, -415.46, -621.95, -279.82, -270.80, 0.000, 0.000, 0.000, 22:07:25.491, 1560456445491
92, -405.09, -553.92, -282.45, -268.97, 0.000, 0.000, 0.000, 22:07:25.491, 1560456445491
93, -420.68, -559.50, -295.19, -259.39, 0.000, 0.000, 0.000, 22:07:25.504, 1560456445504
94, -409.60, -627.27, -296.04, -264.63, 0.000, 0.000, 0.000, 22:07:25.504, 1560456445504
95, -407.93, -615.95, -300.31, -272.40, 0.000, 0.000, 0.000, 22:07:25.505, 1560456445505
96, -399.04, -542.30, -301.33, -272.65, 0.000, 0.000, 0.000, 22:07:25.505, 1560456445505
97, -404.55, -556.82, -290.89, -266.98, 0.000, 0.000, 0.000, 22:07:25.552, 1560456445552
98, -422.28, -633.63, -299.68, -262.16, 0.000, 0.000, 0.000, 22:07:25.552, 1560456445552
99, -410.93, -624.92, -289.53, -269.09, 0.000, 0.000, 0.000, 22:07:25.552, 1560456445552
100, -399.60, -552.87, -268.14, -262.85, 0.000, 0.000, 0.000, 22:07:25.552, 1560456445552
101, -415.39, -563.36, -288.75, -255.83, 0.000, 0.000, 0.000, 22:07:25.553, 1560456445553
102, -415.45, -624.45, -303.58, -260.37, 0.000, 0.000, 0.000, 22:07:25.553, 1560456445553
103, -401.32, -616.99, -299.53, -271.85, 0.000, 0.000, 0.000, 22:07:25.554, 1560456445554
104, -388.63, -548.00, -310.06, -271.01, 0.000, 0.000, 0.000, 22:07:25.554, 1560456445554
105, -408.80, -560.41, -294.80, -258.62, 0.000, 0.000, 0.000, 22:07:25.564, 1560456445564
106, -418.50, -636.71, -291.70, -267.97, 0.000, 0.000, 0.000, 22:07:25.564, 1560456445564
107, -402.50, -627.53, -317.99, -269.54, 0.000, 0.000, 0.000, 22:07:25.565, 1560456445565
108, -411.15, -557.72, -289.95, -270.34, 0.000, 0.000, 0.000, 22:07:25.565, 1560456445565
109, -407.54, -565.27, -298.64, -266.28, 0.000, 0.000, 0.000, 22:07:25.595, 1560456445595
110, -418.55, -636.59, -301.78, -263.50, 0.000, 0.000, 0.000, 22:07:25.595, 1560456445595
111, -403.11, -619.77, -297.34, -270.62, 0.000, 0.000, 0.000, 22:07:25.610, 1560456445610
112, -401.79, -547.97, -292.10, -269.82, 0.000, 0.000, 0.000, 22:07:25.610, 1560456445610
113, -404.00, -563.43, -302.14, -267.36, 0.000, 0.000, 0.000, 22:07:25.611, 1560456445611
114, -417.12, -633.55, -276.26, -259.63, 0.000, 0.000, 0.000, 22:07:25.611, 1560456445611
115, -399.66, -619.49, -293.04, -269.00, 0.000, 0.000, 0.000, 22:07:25.612, 1560456445612
116, -397.79, -548.43, -294.77, -263.17, 0.000, 0.000, 0.000, 22:07:25.612, 1560456445612
117, -392.09, -562.20, -291.79, -252.02, 0.000, 0.000, 0.000, 22:07:25.657, 1560456445657
118, -400.59, -631.34, -290.36, -258.63, 0.000, 0.000, 0.000, 22:07:25.657, 1560456445657
119, -405.50, -619.11, -314.91, -268.81, 0.000, 0.000, 0.000, 22:07:25.657, 1560456445657
120, -387.69, -543.03, -298.86, -273.09, 0.000, 0.000, 0.000, 22:07:25.657, 1560456445657
121, -402.22, -552.38, -291.84, -256.01, 0.000, 0.000, 0.000, 22:07:25.658, 1560456445658
122, -392.14, -616.80, -294.71, -247.51, 0.000, 0.000, 0.000, 22:07:25.658, 1560456445658
123, -403.89, -618.42, -295.87, -270.53, 0.000, 0.000, 0.000, 22:07:25.659, 1560456445659
124, -393.75, -543.38, -311.06, -276.78, 0.000, 0.000, 0.000, 22:07:25.659, 1560456445659
125, -392.30, -549.41, -298.54, -250.83, 0.000, 0.000, 0.000, 22:07:25.669, 1560456445669
126, -406.89, -622.22, -279.93, -250.95, 0.000, 0.000, 0.000, 22:07:25.669, 1560456445669
127, -407.31, -612.38, -301.78, -267.93, 0.000, 0.000, 0.000, 22:07:25.670, 1560456445670
128, -400.79, -545.66, -324.34, -280.33, 0.000, 0.000, 0.000, 22:07:25.670, 1560456445670
129, -407.20, -553.80, -299.15, -266.32, 0.000, 0.000, 0.000, 22:07:25.684, 1560456445684
130, -420.06, -629.53, -280.09, -265.83, 0.000, 0.000, 0.000, 22:07:25.684, 1560456445684
131, -404.70, -615.78, -292.52, -260.90, 0.000, 0.000, 0.000, 22:07:25.685, 1560456445685
132, -393.90, -542.54, -287.54, -263.33, 0.000, 0.000, 0.000, 22:07:25.685, 1560456445685
133, -390.26, -546.59, -304.79, -254.53, 0.000, 0.000, 0.000, 22:07:25.715, 1560456445715
134, -409.40, -632.80, -292.35, -261.42, 0.000, 0.000, 0.000, 22:07:25.715, 1560456445715
135, -414.81, -626.83, -297.21, -276.96, 0.000, 0.000, 0.000, 22:07:25.716, 1560456445716
136, -404.49, -561.94, -289.33, -274.56, 0.000, 0.000, 0.000, 22:07:25.716, 1560456445716
137, -414.66, -567.77, -293.61, -258.75, 0.000, 0.000, 0.000, 22:07:25.717, 1560456445717
138, -406.50, -633.47, -309.65, -265.00, 0.000, 0.000, 0.000, 22:07:25.717, 1560456445717
139, -400.79, -628.15, -274.85, -270.38, 0.000, 0.000, 0.000, 22:07:25.729, 1560456445729
140, -410.34, -565.64, -292.21, -275.70, 0.000, 0.000, 0.000, 22:07:25.729, 1560456445729
141, -412.42, -565.31, -311.26, -267.72, 0.000, 0.000, 0.000, 22:07:25.760, 1560456445760
142, -411.04, -629.48, -302.34, -266.38, 0.000, 0.000, 0.000, 22:07:25.760, 1560456445760
143, -405.74, -618.38, -308.91, -261.55, 0.000, 0.000, 0.000, 22:07:25.761, 1560456445761
144, -392.60, -553.15, -280.42, -276.33, 0.000, 0.000, 0.000, 22:07:25.761, 1560456445761
145, -405.41, -560.97, -296.06, -260.42, 0.000, 0.000, 0.000, 22:07:25.762, 1560456445762
146, -410.09, -624.51, -281.35, -254.37, 0.000, 0.000, 0.000, 22:07:25.762, 1560456445762
147, -401.74, -622.12, -290.18, -271.97, 0.000, 0.000, 0.000, 22:07:25.775, 1560456445775
148, -394.86, -556.82, -292.37, -279.93, 0.000, 0.000, 0.000, 22:07:25.775, 1560456445775
149, -404.67, -553.69, -305.10, -257.78, 0.000, 0.000, 0.000, 22:07:25.775, 1560456445775
150, -394.21, -617.83, -305.28, -256.22, 0.000, 0.000, 0.000, 22:07:25.775, 1560456445775
151, -410.38, -628.07, -291.46, -271.32, 0.000, 0.000, 0.000, 22:07:25.806, 1560456445806
152, -389.28, -557.36, -325.38, -273.56, 0.000, 0.000, 0.000, 22:07:25.806, 1560456445806
153, -398.60, -557.67, -319.46, -268.13, 0.000, 0.000, 0.000, 22:07:25.807, 1560456445807
154, -401.33, -619.85, -292.32, -256.45, 0.000, 0.000, 0.000, 22:07:25.807, 1560456445807
155, -405.48, -629.32, -284.19, -267.76, 0.000, 0.000, 0.000, 22:07:25.820, 1560456445820
156, -395.13, -558.24, -297.01, -265.93, 0.000, 0.000, 0.000, 22:07:25.820, 1560456445820
157, -410.58, -569.50, -302.50, -265.98, 0.000, 0.000, 0.000, 22:07:25.835, 1560456445835
158, -416.62, -630.23, -304.33, -257.99, 0.000, 0.000, 0.000, 22:07:25.835, 1560456445835
159, -410.59, -631.23, -296.95, -271.45, 0.000, 0.000, 0.000, 22:07:25.836, 1560456445836
160, -398.59, -557.56, -316.36, -272.20, 0.000, 0.000, 0.000, 22:07:25.836, 1560456445836
161, -414.24, -566.99, -296.09, -262.12, 0.000, 0.000, 0.000, 22:07:25.837, 1560456445837
162, -421.17, -638.54, -288.99, -264.96, 0.000, 0.000, 0.000, 22:07:25.837, 1560456445837
163, -416.67, -638.18, -294.24, -280.51, 0.000, 0.000, 0.000, 22:07:25.849, 1560456445849
164, -414.97, -575.58, -307.95, -277.50, 0.000, 0.000, 0.000, 22:07:25.849, 1560456445849
165, -408.08, -571.08, -308.25, -268.18, 0.000, 0.000, 0.000, 22:07:25.880, 1560456445880
166, -421.88, -644.63, -282.97, -272.08, 0.000, 0.000, 0.000, 22:07:25.880, 1560456445880
167, -422.86, -639.35, -306.58, -271.18, 0.000, 0.000, 0.000, 22:07:25.881, 1560456445881
168, -406.84, -569.86, -309.22, -283.51, 0.000, 0.000, 0.000, 22:07:25.881, 1560456445881
169, -408.07, -582.17, -305.70, -265.36, 0.000, 0.000, 0.000, 22:07:25.881, 1560456445881
170, -414.58, -641.19, -265.07, -249.19, 0.000, 0.000, 0.000, 22:07:25.881, 1560456445881
171, -413.36, -634.06, -306.42, -281.00, 0.000, 0.000, 0.000, 22:07:25.894, 1560456445894
172, -397.17, -553.55, -289.87, -275.58, 0.000, 0.000, 0.000, 22:07:25.894, 1560456445894
173, -408.05, -552.38, -284.86, -248.41, 0.000, 0.000, 0.000, 22:07:25.895, 1560456445895
174, -421.96, -625.95, -315.04, -270.08, 0.000, 0.000, 0.000, 22:07:25.895, 1560456445895
175, -415.46, -624.47, -310.15, -271.54, 0.000, 0.000, 0.000, 22:07:25.909, 1560456445909
176, -397.96, -557.91, -321.93, -275.99, 0.000, 0.000, 0.000, 22:07:25.909, 1560456445909
177, -409.15, -552.47, -310.72, -262.40, 0.000, 0.000, 0.000, 22:07:25.941, 1560456445941
178, -417.59, -631.22, -297.60, -265.92, 0.000, 0.000, 0.000, 22:07:25.941, 1560456445941
179, -401.84, -631.19, -277.54, -263.90, 0.000, 0.000, 0.000, 22:07:25.956, 1560456445956
180, -400.62, -569.84, -280.64, -273.18, 0.000, 0.000, 0.000, 22:07:25.956, 1560456445956
181, -415.42, -569.53, -299.61, -271.28, 0.000, 0.000, 0.000, 22:07:25.956, 1560456445956
182, -432.29, -632.52, -305.44, -262.88, 0.000, 0.000, 0.000, 22:07:25.956, 1560456445956
183, -419.60, -633.19, -301.37, -268.52, 0.000, 0.000, 0.000, 22:07:25.957, 1560456445957
184, -403.54, -571.99, -314.69, -291.24, 0.000, 0.000, 0.000, 22:07:25.957, 1560456445957
185, -418.93, -566.49, -321.28, -265.68, 0.000, 0.000, 0.000, 22:07:25.958, 1560456445958
186, -427.05, -638.03, -299.95, -275.12, 0.000, 0.000, 0.000, 22:07:25.958, 1560456445958
187, -429.12, -639.48, -282.57, -275.16, 0.000, 0.000, 0.000, 22:07:26.002, 1560456446002
188, -426.01, -580.27, -288.77, -276.86, 0.000, 0.000, 0.000, 22:07:26.002, 1560456446002
189, -416.31, -577.98, -288.62, -272.20, 0.000, 0.000, 0.000, 22:07:26.002, 1560456446002
190, -428.05, -643.24, -305.02, -276.98, 0.000, 0.000, 0.000, 22:07:26.002, 1560456446002
191, -421.05, -639.03, -301.69, -276.98, 0.000, 0.000, 0.000, 22:07:26.003, 1560456446003
192, -415.44, -573.88, -300.96, -280.01, 0.000, 0.000, 0.000, 22:07:26.003, 1560456446003
193, -416.95, -573.64, -292.63, -263.58, 0.000, 0.000, 0.000, 22:07:26.004, 1560456446004
194, -417.72, -635.44, -304.39, -268.38, 0.000, 0.000, 0.000, 22:07:26.004, 1560456446004
195, -406.25, -621.37, -298.95, -266.76, 0.000, 0.000, 0.000, 22:07:26.015, 1560456446015
196, -402.28, -569.37, -274.11, -282.17, 0.000, 0.000, 0.000, 22:07:26.015, 1560456446015
197, -409.51, -566.66, -312.00, -272.83, 0.000, 0.000, 0.000, 22:07:26.015, 1560456446015
198, -418.23, -638.02, -282.74, -259.42, 0.000, 0.000, 0.000, 22:07:26.015, 1560456446015
199, -402.01, -619.99, -276.24, -269.63, 0.000, 0.000, 0.000, 22:07:26.046, 1560456446046
200, -393.34, -560.33, -320.40, -280.62, 0.000, 0.000, 0.000, 22:07:26.046, 1560456446046
0, -406.55, -563.65, -298.45, -260.49, 0.000, 0.000, 0.000, 22:07:26.061, 1560456446061
1, -423.90, -623.78, -299.35, -263.03, 0.000, 0.000, 0.000, 22:07:26.062, 1560456446062
2, -403.67, -623.59, -298.33, -269.84, 0.000, 0.000, 0.000, 22:07:26.062, 1560456446062
3, -406.28, -571.47, -312.30, -286.65, 0.000, 0.000, 0.000, 22:07:26.062, 1560456446062
4, -403.90, -566.86, -296.61, -262.04, 0.000, 0.000, 0.000, 22:07:26.062, 1560456446062
5, -420.33, -623.10, -294.52, -254.54, 0.000, 0.000, 0.000, 22:07:26.063, 1560456446063
6, -422.88, -626.91, -295.50, -287.25, 0.000, 0.000, 0.000, 22:07:26.063, 1560456446063
7, -416.80, -565.74, -275.16, -281.12, 0.000, 0.000, 0.000, 22:07:26.107, 1560456446107
8, -426.57, -558.46, -280.61, -255.37, 0.000, 0.000, 0.000, 22:07:26.107, 1560456446107
9, -419.14, -622.63, -307.45, -260.10, 0.000, 0.000, 0.000, 22:07:26.108, 1560456446108
10, -413.36, -621.56, -315.41, -275.92, 0.000, 0.000, 0.000, 22:07:26.108, 1560456446108
11, -414.02, -565.98, -284.34, -278.62, 0.000, 0.000, 0.000, 22:07:26.108, 1560456446108
12, -400.01, -554.74, -315.49, -260.46, 0.000, 0.000, 0.000, 22:07:26.108, 1560456446108
13, -405.27, -619.57, -260.90, -251.36, 0.000, 0.000, 0.000, 22:07:26.167, 1560456446167
14, -404.75, -608.13, -238.50, -257.88, 0.000, 0.000, 0.000, 22:07:26.167, 1560456446167
15, -421.20, -569.92, -283.72, -278.18, 0.000, 0.000, 0.000, 22:07:26.167, 1560456446167
16, -395.93, -555.61, -318.89, -257.82, 0.000, 0.000, 0.000, 22:07:26.167, 1560456446167
17, -421.19, -622.79, -290.67, -252.37, 0.000, 0.000, 0.000, 22:07:26.168, 1560456446168
18, -418.55, -629.45, -282.38, -282.01, 0.000, 0.000, 0.000, 22:07:26.168, 1560456446168
19, -406.48, -568.29, -304.82, -281.24, 0.000, 0.000, 0.000, 22:07:26.169, 1560456446169
20, -407.38, -559.40, -313.86, -255.09, 0.000, 0.000, 0.000, 22:07:26.169, 1560456446169
21, -417.93, -630.31, -313.44, -273.78, 0.000, 0.000, 0.000, 22:07:26.211, 1560456446211
22, -407.62, -629.80, -285.92, -276.25, 0.000, 0.000, 0.000, 22:07:26.211, 1560456446211
23, -393.31, -563.82, -298.65, -270.71, 0.000, 0.000, 0.000, 22:07:26.212, 1560456446212
24, -394.07, -550.92, -281.90, -254.47, 0.000, 0.000, 0.000, 22:07:26.212, 1560456446212
25, -411.03, -623.25, -303.78, -275.63, 0.000, 0.000, 0.000, 22:07:26.213, 1560456446213
26, -413.89, -634.43, -309.28, -267.95, 0.000, 0.000, 0.000, 22:07:26.213, 1560456446213
29, -427.98, -707.45, -297.37, -264.32, 0.000, 0.000, 0.000, 22:07:26.214, 1560456446214
30, -427.44, -715.25, -300.45, -289.28, 0.000, 0.000, 0.000, 22:07:26.214, 1560456446214
31, -419.60, -644.60, -297.66, -288.16, 0.000, 0.000, 0.000, 22:07:26.227, 1560456446227
32, -424.93, -640.45, -310.39, -268.08, 0.000, 0.000, 0.000, 22:07:26.227, 1560456446227
33, -429.49, -707.39, -299.18, -270.60, 0.000, 0.000, 0.000, 22:07:26.227, 1560456446227
34, -432.22, -704.31, -306.77, -280.93, 0.000, 0.000, 0.000, 22:07:26.227, 1560456446227
35, -411.84, -631.08, -311.28, -281.73, 0.000, 0.000, 0.000, 22:07:26.228, 1560456446228
36, -424.30, -638.46, -296.56, -273.18, 0.000, 0.000, 0.000, 22:07:26.228, 1560456446228
37, -439.26, -707.12, -311.00, -275.44, 0.000, 0.000, 0.000, 22:07:26.229, 1560456446229
38, -419.30, -691.14, -307.88, -274.54, 0.000, 0.000, 0.000, 22:07:26.229, 1560456446229
39, -419.82, -639.52, -290.41, -290.16, 0.000, 0.000, 0.000, 22:07:26.272, 1560456446272
40, -425.41, -639.57, -317.00, -282.94, 0.000, 0.000, 0.000, 22:07:26.272, 1560456446272
41, -410.81, -689.30, -338.16, -268.13, 0.000, 0.000, 0.000, 22:07:26.272, 1560456446272
42, -418.48, -703.68, -300.62, -276.50, 0.000, 0.000, 0.000, 22:07:26.272, 1560456446272
43, -409.95, -641.95, -293.08, -286.37, 0.000, 0.000, 0.000, 22:07:26.273, 1560456446273
44, -418.97, -631.23, -297.30, -273.95, 0.000, 0.000, 0.000, 22:07:26.273, 1560456446273
45, -433.48, -690.64, -305.42, -253.50, 0.000, 0.000, 0.000, 22:07:26.274, 1560456446274
46, -424.77, -697.98, -281.08, -280.62, 0.000, 0.000, 0.000, 22:07:26.274, 1560456446274
47, -411.04, -636.99, -312.36, -284.40, 0.000, 0.000, 0.000, 22:07:26.286, 1560456446286
48, -402.06, -615.63, -314.80, -261.06, 0.000, 0.000, 0.000, 22:07:26.286, 1560456446286
49, -408.52, -689.31, -326.37, -264.67, 0.000, 0.000, 0.000, 22:07:26.287, 1560456446287
50, -419.25, -691.84, -315.42, -281.70, 0.000, 0.000, 0.000, 22:07:26.287, 1560456446287
51, -387.43, -627.18, -330.85, -276.65, 0.000, 0.000, 0.000, 22:07:26.300, 1560456446300
52, -390.61, -617.74, -330.05, -260.67, 0.000, 0.000, 0.000, 22:07:26.300, 1560456446300
53, -401.03, -681.51, -286.94, -247.74, 0.000, 0.000, 0.000, 22:07:26.300, 1560456446300
54, -428.59, -711.21, -311.84, -289.90, 0.000, 0.000, 0.000, 22:07:26.300, 1560456446300
55, -423.90, -648.56, -327.33, -303.14, 0.000, 0.000, 0.000, 22:07:26.331, 1560456446331
56, -420.71, -624.79, -328.75, -266.34, 0.000, 0.000, 0.000, 22:07:26.331, 1560456446331
57, -433.68, -695.55, -316.92, -264.98, 0.000, 0.000, 0.000, 22:07:26.331, 1560456446331
58, -424.81, -700.85, -301.03, -294.81, 0.000, 0.000, 0.000, 22:07:26.331, 1560456446331
59, -417.92, -642.40, -308.88, -273.61, 0.000, 0.000, 0.000, 22:07:26.332, 1560456446332
60, -412.45, -624.23, -305.68, -260.76, 0.000, 0.000, 0.000, 22:07:26.332, 1560456446332
61, -429.12, -706.89, -302.78, -272.62, 0.000, 0.000, 0.000, 22:07:26.377, 1560456446377
62, -410.67, -705.03, -305.31, -273.07, 0.000, 0.000, 0.000, 22:07:26.377, 1560456446377
63, -406.11, -634.40, -306.47, -273.71, 0.000, 0.000, 0.000, 22:07:26.377, 1560456446377
64, -425.14, -636.58, -295.80, -271.43, 0.000, 0.000, 0.000, 22:07:26.377, 1560456446377
65, -417.77, -694.73, -289.84, -263.14, 0.000, 0.000, 0.000, 22:07:26.378, 1560456446378
66, -435.92, -707.39, -282.87, -281.62, 0.000, 0.000, 0.000, 22:07:26.378, 1560456446378
67, -424.49, -642.20, -333.93, -289.53, 0.000, 0.000, 0.000, 22:07:26.379, 1560456446379
68, -404.28, -629.39, -296.69, -261.69, 0.000, 0.000, 0.000, 22:07:26.379, 1560456446379
69, -419.47, -698.93, -310.84, -276.15, 0.000, 0.000, 0.000, 22:07:26.390, 1560456446390
70, -417.39, -701.76, -302.61, -279.18, 0.000, 0.000, 0.000, 22:07:26.390, 1560456446390
71, -401.41, -626.59, -332.93, -271.63, 0.000, 0.000, 0.000, 22:07:26.390, 1560456446390
72, -425.25, -642.47, -287.77, -272.38, 0.000, 0.000, 0.000, 22:07:26.390, 1560456446390
73, -420.51, -701.07, -321.57, -273.04, 0.000, 0.000, 0.000, 22:07:26.404, 1560456446404
74, -416.13, -707.91, -311.49, -282.68, 0.000, 0.000, 0.000, 22:07:26.404, 1560456446404
75, -418.95, -639.34, -267.43, -272.43, 0.000, 0.000, 0.000, 22:07:26.435, 1560456446435
76, -404.56, -630.39, -307.84, -277.77, 0.000, 0.000, 0.000, 22:07:26.435, 1560456446435
77, -423.01, -703.15, -285.71, -263.39, 0.000, 0.000, 0.000, 22:07:26.436, 1560456446436
78, -415.62, -700.68, -303.39, -268.51, 0.000, 0.000, 0.000, 22:07:26.436, 1560456446436
79, -409.81, -637.94, -339.16, -287.65, 0.000, 0.000, 0.000, 22:07:26.437, 1560456446437
80, -408.16, -623.81, -299.99, -263.98, 0.000, 0.000, 0.000, 22:07:26.437, 1560456446437
81, -420.20, -693.84, -305.11, -266.32, 0.000, 0.000, 0.000, 22:07:26.450, 1560456446450
82, -423.21, -704.25, -330.82, -278.65, 0.000, 0.000, 0.000, 22:07:26.450, 1560456446450
83, -390.80, -622.59, -304.42, -271.73, 0.000, 0.000, 0.000, 22:07:26.450, 1560456446450
84, -427.89, -649.94, -293.58, -287.92, 0.000, 0.000, 0.000, 22:07:26.450, 1560456446450
85, -424.21, -700.81, -299.04, -264.29, 0.000, 0.000, 0.000, 22:07:26.464, 1560456446464
86, -426.49, -708.16, -279.95, -279.91, 0.000, 0.000, 0.000, 22:07:26.464, 1560456446464
87, -418.95, -643.71, -309.40, -295.32, 0.000, 0.000, 0.000, 22:07:26.480, 1560456446480
88, -421.11, -632.10, -292.49, -261.52, 0.000, 0.000, 0.000, 22:07:26.480, 1560456446480
89, -424.97, -698.57, -309.33, -270.67, 0.000, 0.000, 0.000, 22:07:26.480, 1560456446480
90, -416.56, -696.73, -312.68, -276.10, 0.000, 0.000, 0.000, 22:07:26.480, 1560456446480
91, -386.67, -627.46, -320.95, -270.25, 0.000, 0.000, 0.000, 22:07:26.511, 1560456446511
92, -403.56, -627.76, -304.56, -266.45, 0.000, 0.000, 0.000, 22:07:26.512, 1560456446512
93, -427.80, -709.62, -279.66, -273.28, 0.000, 0.000, 0.000, 22:07:26.512, 1560456446512
94, -439.66, -726.67, -308.71, -283.54, 0.000, 0.000, 0.000, 22:07:26.512, 1560456446512
95, -422.05, -649.65, -324.67, -292.81, 0.000, 0.000, 0.000, 22:07:26.513, 1560456446513
96, -399.98, -630.03, -299.62, -259.22, 0.000, 0.000, 0.000, 22:07:26.513, 1560456446513
97, -412.45, -705.31, -310.23, -266.14, 0.000, 0.000, 0.000, 22:07:26.524, 1560456446524
98, -418.11, -716.18, -307.37, -281.88, 0.000, 0.000, 0.000, 22:07:26.524, 1560456446524
99, -412.72, -648.93, -319.20, -294.22, 0.000, 0.000, 0.000, 22:07:26.539, 1560456446539
100, -405.72, -635.12, -318.34, -283.52, 0.000, 0.000, 0.000, 22:07:26.539, 1560456446539
101, -415.02, -696.68, -322.73, -255.52, 0.000, 0.000, 0.000, 22:07:26.540, 1560456446540
102, -414.76, -706.25, -299.75, -268.59, 0.000, 0.000, 0.000, 22:07:26.540, 1560456446540
103, -418.89, -653.57, -315.08, -299.55, 0.000, 0.000, 0.000, 22:07:26.554, 1560456446554
104, -415.78, -636.72, -304.76, -270.96, 0.000, 0.000, 0.000, 22:07:26.554, 1560456446554
105, -405.69, -694.77, -275.64, -262.94, 0.000, 0.000, 0.000, 22:07:26.569, 1560456446569
106, -409.74, -699.16, -332.88, -267.71, 0.000, 0.000, 0.000, 22:07:26.569, 1560456446569
107, -384.01, -615.99, -314.98, -267.90, 0.000, 0.000, 0.000, 22:07:26.570, 1560456446570
108, -419.01, -637.11, -337.40, -286.42, 0.000, 0.000, 0.000, 22:07:26.570, 1560456446570
109, -422.69, -693.60, -325.76, -278.89, 0.000, 0.000, 0.000, 22:07:26.600, 1560456446600
110, -425.26, -710.76, -284.69, -272.10, 0.000, 0.000, 0.000, 22:07:26.600, 1560456446600
111, -398.40, -628.62, -259.67, -264.10, 0.000, 0.000, 0.000, 22:07:26.601, 1560456446601
112, -415.82, -635.86, -322.14, -273.35, 0.000, 0.000, 0.000, 22:07:26.601, 1560456446601
113, -426.93, -706.89, -327.21, -268.23, 0.000, 0.000, 0.000, 22:07:26.602, 1560456446602
114, -422.02, -708.92, -310.34, -276.64, 0.000, 0.000, 0.000, 22:07:26.602, 1560456446602
115, -403.51, -643.91, -340.10, -290.64, 0.000, 0.000, 0.000, 22:07:26.614, 1560456446614
116, -422.18, -635.71, -328.51, -281.08, 0.000, 0.000, 0.000, 22:07:26.614, 1560456446614
117, -411.55, -685.68, -328.19, -272.99, 0.000, 0.000, 0.000, 22:07:26.630, 1560456446630
118, -406.31, -692.55, -285.15, -256.34, 0.000, 0.000, 0.000, 22:07:26.630, 1560456446630
119, -437.78, -669.63, -325.79, -290.88, 0.000, 0.000, 0.000, 22:07:26.630, 1560456446630
120, -424.26, -648.38, -305.05, -283.88, 0.000, 0.000, 0.000, 22:07:26.630, 1560456446630
121, -430.16, -710.56, -327.57, -277.36, 0.000, 0.000, 0.000, 22:07:26.644, 1560456446644
122, -418.09, -708.83, -299.33, -273.77, 0.000, 0.000, 0.000, 22:07:26.644, 1560456446644
123, -412.30, -649.64, -309.13, -282.76, 0.000, 0.000, 0.000, 22:07:26.660, 1560456446660
124, -409.63, -638.91, -326.60, -275.24, 0.000, 0.000, 0.000, 22:07:26.660, 1560456446660
125, -421.62, -704.08, -317.69, -257.17, 0.000, 0.000, 0.000, 22:07:26.661, 1560456446661
126, -411.18, -705.83, -311.45, -280.77, 0.000, 0.000, 0.000, 22:07:26.661, 1560456446661
127, -408.16, -645.61, -345.14, -296.59, 0.000, 0.000, 0.000, 22:07:26.690, 1560456446690
128, -400.71, -620.69, -291.14, -261.59, 0.000, 0.000, 0.000, 22:07:26.690, 1560456446690
129, -423.26, -703.75, -313.90, -272.28, 0.000, 0.000, 0.000, 22:07:26.691, 1560456446691
130, -424.16, -717.63, -324.42, -283.36, 0.000, 0.000, 0.000, 22:07:26.691, 1560456446691
131, -410.01, -649.80, -311.91, -285.30, 0.000, 0.000, 0.000, 22:07:26.691, 1560456446691
132, -410.76, -635.32, -351.92, -279.39, 0.000, 0.000, 0.000, 22:07:26.691, 1560456446691
133, -433.18, -708.54, -284.78, -276.71, 0.000, 0.000, 0.000, 22:07:26.704, 1560456446704
134, -436.02, -710.86, -320.92, -268.42, 0.000, 0.000, 0.000, 22:07:26.704, 1560456446704
135, -417.41, -651.54, -331.09, -294.37, 0.000, 0.000, 0.000, 22:07:26.767, 1560456446767
136, -427.98, -642.52, -317.36, -287.30, 0.000, 0.000, 0.000, 22:07:26.767, 1560456446767
137, -408.29, -691.33, -316.25, -253.92, 0.000, 0.000, 0.000, 22:07:26.767, 1560456446767
138, -439.76, -726.81, -305.36, -289.61, 0.000, 0.000, 0.000, 22:07:26.767, 1560456446767
139, -424.79, -658.48, -299.14, -291.74, 0.000, 0.000, 0.000, 22:07:26.768, 1560456446768
140, -417.49, -639.36, -295.07, -268.35, 0.000, 0.000, 0.000, 22:07:26.768, 1560456446768
141, -417.96, -699.52, -291.04, -258.21, 0.000, 0.000, 0.000, 22:07:26.769, 1560456446769
142, -416.49, -703.39, -305.17, -287.83, 0.000, 0.000, 0.000, 22:07:26.769, 1560456446769
143, -423.63, -638.86, -334.51, -288.96, 0.000, 0.000, 0.000, 22:07:26.781, 1560456446781
144, -435.60, -645.81, -315.09, -283.88, 0.000, 0.000, 0.000, 22:07:26.781, 1560456446781
145, -432.02, -708.06, -312.35, -282.94, 0.000, 0.000, 0.000, 22:07:26.782, 1560456446782
146, -425.72, -696.77, -340.33, -278.60, 0.000, 0.000, 0.000, 22:07:26.782, 1560456446782
147, -414.29, -637.37, -286.47, -279.28, 0.000, 0.000, 0.000, 22:07:26.782, 1560456446782
148, -398.78, -624.79, -331.57, -268.69, 0.000, 0.000, 0.000, 22:07:26.782, 1560456446782
149, -422.19, -687.88, -318.54, -279.82, 0.000, 0.000, 0.000, 22:07:26.783, 1560456446783
150, -412.50, -698.62, -279.66, -269.05, 0.000, 0.000, 0.000, 22:07:26.783, 1560456446783
151, -402.57, -634.95, -252.43, -275.99, 0.000, 0.000, 0.000, 22:07:26.794, 1560456446794
152, -408.91, -626.86, -378.44, -269.50, 0.000, 0.000, 0.000, 22:07:26.794, 1560456446794
153, -424.27, -693.36, -309.75, -281.86, 0.000, 0.000, 0.000, 22:07:26.810, 1560456446810
154, -422.74, -701.76, -315.97, -277.97, 0.000, 0.000, 0.000, 22:07:26.810, 1560456446810
155, -399.86, -637.22, -319.57, -279.33, 0.000, 0.000, 0.000, 22:07:26.810, 1560456446810
156, -393.91, -613.21, -295.44, -260.71, 0.000, 0.000, 0.000, 22:07:26.810, 1560456446810
157, -411.65, -687.65, -299.26, -266.14, 0.000, 0.000, 0.000, 22:07:26.824, 1560456446824
158, -409.25, -703.59, -322.35, -265.50, 0.000, 0.000, 0.000, 22:07:26.824, 1560456446824
159, -384.18, -631.09, -322.02, -282.69, 0.000, 0.000, 0.000, 22:07:26.839, 1560456446839
160, -379.48, -606.03, -310.70, -268.88, 0.000, 0.000, 0.000, 22:07:26.839, 1560456446839
161, -385.00, -667.45, -293.39, -252.36, 0.000, 0.000, 0.000, 22:07:26.840, 1560456446840
162, -362.77, -656.06, -305.03, -246.53, 0.000, 0.000, 0.000, 22:07:26.840, 1560456446840
163, -359.17, -606.07, -291.93, -268.38, 0.000, 0.000, 0.000, 22:07:26.854, 1560456446854
164, -371.63, -599.62, -311.58, -250.75, 0.000, 0.000, 0.000, 22:07:26.854, 1560456446854
165, -348.24, -652.20, -309.25, -242.13, 0.000, 0.000, 0.000, 22:07:26.870, 1560456446870
166, -340.34, -659.30, -267.56, -244.40, 0.000, 0.000, 0.000, 22:07:26.870, 1560456446870
167, -340.08, -605.13, -277.51, -254.97, 0.000, 0.000, 0.000, 22:07:26.871, 1560456446871
168, -323.15, -561.29, -268.43, -231.80, 0.000, 0.000, 0.000, 22:07:26.871, 1560456446871
169, -306.82, -618.78, -257.68, -213.14, 0.000, 0.000, 0.000, 22:07:26.923, 1560456446923
170, -330.61, -640.29, -280.98, -236.12, 0.000, 0.000, 0.000, 22:07:26.923, 1560456446923
171, -288.92, -567.27, -284.05, -245.09, 0.000, 0.000, 0.000, 22:07:26.923, 1560456446923
172, -283.76, -560.67, -274.11, -217.80, 0.000, 0.000, 0.000, 22:07:26.923, 1560456446923
173, -290.51, -629.92, -275.07, -216.41, 0.000, 0.000, 0.000, 22:07:26.923, 1560456446923
174, -287.52, -624.26, -254.87, -222.54, 0.000, 0.000, 0.000, 22:07:26.923, 1560456446923
175, -273.23, -561.36, -303.57, -239.79, 0.000, 0.000, 0.000, 22:07:26.930, 1560456446930
176, -285.43, -546.88, -300.55, -217.93, 0.000, 0.000, 0.000, 22:07:26.930, 1560456446930
177, -267.09, -606.26, -264.50, -203.84, 0.000, 0.000, 0.000, 22:07:26.931, 1560456446931
178, -280.55, -618.17, -271.45, -219.81, 0.000, 0.000, 0.000, 22:07:26.931, 1560456446931
179, -275.95, -562.18, -278.14, -234.91, 0.000, 0.000, 0.000, 22:07:26.932, 1560456446932
180, -289.79, -552.25, -257.81, -213.96, 0.000, 0.000, 0.000, 22:07:26.932, 1560456446932
181, -286.42, -619.30, -265.58, -208.12, 0.000, 0.000, 0.000, 22:07:26.944, 1560456446944
182, -296.16, -638.39, -263.30, -214.19, 0.000, 0.000, 0.000, 22:07:26.944, 1560456446944
183, -274.32, -567.08, -239.12, -222.68, 0.000, 0.000, 0.000, 22:07:26.960, 1560456446960
184, -290.98, -563.20, -247.63, -211.30, 0.000, 0.000, 0.000, 22:07:26.960, 1560456446960
185, -292.78, -622.41, -250.20, -200.59, 0.000, 0.000, 0.000, 22:07:26.961, 1560456446961
186, -299.37, -629.51, -271.21, -218.01, 0.000, 0.000, 0.000, 22:07:26.961, 1560456446961
187, -297.21, -576.49, -271.51, -241.11, 0.000, 0.000, 0.000, 22:07:26.976, 1560456446976
188, -301.36, -563.47, -311.42, -224.72, 0.000, 0.000, 0.000, 22:07:26.976, 1560456446976
189, -304.78, -629.78, -274.10, -220.81, 0.000, 0.000, 0.000, 22:07:26.990, 1560456446990
190, -304.23, -630.86, -287.57, -236.40, 0.000, 0.000, 0.000, 22:07:26.990, 1560456446990
191, -292.56, -570.46, -275.73, -229.77, 0.000, 0.000, 0.000, 22:07:26.990, 1560456446990
192, -303.53, -558.44, -268.56, -217.19, 0.000, 0.000, 0.000, 22:07:26.990, 1560456446990
193, -324.37, -632.80, -298.15, -222.24, 0.000, 0.000, 0.000, 22:07:27.004, 1560456447004
194, -301.98, -635.02, -283.10, -223.42, 0.000, 0.000, 0.000, 22:07:27.004, 1560456447004
195, -307.04, -582.41, -265.12, -239.55, 0.000, 0.000, 0.000, 22:07:27.020, 1560456447020
196, -300.40, -575.39, -272.41, -226.83, 0.000, 0.000, 0.000, 22:07:27.020, 1560456447020
197, -320.73, -636.42, -273.27, -218.90, 0.000, 0.000, 0.000, 22:07:27.020, 1560456447020
198, -303.46, -631.70, -278.86, -226.73, 0.000, 0.000, 0.000, 22:07:27.020, 1560456447020
199, -302.44, -573.55, -269.70, -227.04, 0.000, 0.000, 0.000, 22:07:27.035, 1560456447035
200, -322.15, -570.66, -285.06, -228.99, 0.000, 0.000, 0.000, 22:07:27.035, 1560456447035
0, -312.19, -561.58, -285.09, -223.47, 0.000, 0.000, 0.000, 22:07:27.035, 1560456447035
1, -315.72, -583.24, -279.77, -242.09, 0.000, 0.000, 0.000, 22:07:27.065, 1560456447065
2, -316.68, -528.10, -294.00, -249.99, 0.000, 0.000, 0.000, 22:07:27.065, 1560456447065
3, -328.63, -510.03, -255.35, -227.70, 0.000, 0.000, 0.000, 22:07:27.066, 1560456447066
4, -318.01, -557.34, -248.87, -206.41, 0.000, 0.000, 0.000, 22:07:27.066, 1560456447066
5, -322.24, -568.12, -267.51, -222.93, 0.000, 0.000, 0.000, 22:07:27.067, 1560456447067
6, -319.12, -522.51, -266.92, -240.70, 0.000, 0.000, 0.000, 22:07:27.067, 1560456447067
7, -322.55, -502.28, -271.64, -219.98, 0.000, 0.000, 0.000, 22:07:27.095, 1560456447095
8, -336.22, -581.90, -276.49, -231.13, 0.000, 0.000, 0.000, 22:07:27.095, 1560456447095
9, -360.05, -591.43, -282.06, -248.22, 0.000, 0.000, 0.000, 22:07:27.096, 1560456447096
10, -335.47, -537.87, -281.48, -249.79, 0.000, 0.000, 0.000, 22:07:27.096, 1560456447096
11, -342.74, -519.56, -283.15, -236.75, 0.000, 0.000, 0.000, 22:07:27.097, 1560456447097
12, -329.64, -563.12, -268.62, -219.72, 0.000, 0.000, 0.000, 22:07:27.097, 1560456447097
13, -342.50, -590.37, -256.49, -244.14, 0.000, 0.000, 0.000, 22:07:27.109, 1560456447109
14, -339.06, -525.08, -284.93, -235.53, 0.000, 0.000, 0.000, 22:07:27.109, 1560456447109
15, -349.96, -516.53, -290.46, -241.23, 0.000, 0.000, 0.000, 22:07:27.125, 1560456447125
16, -359.29, -586.76, -277.17, -237.18, 0.000, 0.000, 0.000, 22:07:27.125, 1560456447125
17, -351.47, -587.12, -280.36, -237.98, 0.000, 0.000, 0.000, 22:07:27.125, 1560456447125
18, -335.85, -530.97, -268.98, -253.87, 0.000, 0.000, 0.000, 22:07:27.125, 1560456447125
19, -345.98, -515.33, -294.13, -239.46, 0.000, 0.000, 0.000, 22:07:27.139, 1560456447139
20, -352.06, -588.05, -293.48, -232.65, 0.000, 0.000, 0.000, 22:07:27.139, 1560456447139
21, -334.50, -585.43, -283.56, -233.88, 0.000, 0.000, 0.000, 22:07:27.155, 1560456447155
22, -341.23, -525.06, -291.84, -251.37, 0.000, 0.000, 0.000, 22:07:27.155, 1560456447155
23, -338.17, -509.33, -296.09, -230.91, 0.000, 0.000, 0.000, 22:07:27.155, 1560456447155
24, -344.72, -569.70, -276.21, -233.22, 0.000, 0.000, 0.000, 22:07:27.155, 1560456447155
25, -356.29, -592.14, -285.76, -258.27, 0.000, 0.000, 0.000, 22:07:27.169, 1560456447169
26, -348.44, -534.71, -290.64, -259.89, 0.000, 0.000, 0.000, 22:07:27.169, 1560456447169
27, -357.81, -523.11, -296.97, -242.79, 0.000, 0.000, 0.000, 22:07:27.185, 1560456447185
28, -362.87, -584.57, -275.11, -241.81, 0.000, 0.000, 0.000, 22:07:27.185, 1560456447185
29, -349.87, -580.10, -274.64, -236.59, 0.000, 0.000, 0.000, 22:07:27.185, 1560456447185
30, -367.25, -549.33, -293.23, -276.18, 0.000, 0.000, 0.000, 22:07:27.185, 1560456447185
31, -376.16, -535.00, -295.65, -263.31, 0.000, 0.000, 0.000, 22:07:27.199, 1560456447199
32, -377.72, -599.71, -276.42, -234.45, 0.000, 0.000, 0.000, 22:07:27.199, 1560456447199
33, -378.62, -602.55, -270.02, -256.21, 0.000, 0.000, 0.000, 22:07:27.245, 1560456447245
34, -374.88, -546.07, -279.49, -257.83, 0.000, 0.000, 0.000, 22:07:27.245, 1560456447245
35, -357.58, -525.84, -270.05, -235.41, 0.000, 0.000, 0.000, 22:07:27.292, 1560456447292
36, -360.61, -589.89, -282.61, -241.60, 0.000, 0.000, 0.000, 22:07:27.292, 1560456447292
37, -373.69, -602.87, -284.11, -263.38, 0.000, 0.000, 0.000, 22:07:27.292, 1560456447292
38, -361.78, -542.75, -302.55, -262.65, 0.000, 0.000, 0.000, 22:07:27.292, 1560456447292
39, -362.67, -527.06, -302.23, -252.59, 0.000, 0.000, 0.000, 22:07:27.293, 1560456447293
40, -373.33, -593.36, -277.99, -240.48, 0.000, 0.000, 0.000, 22:07:27.293, 1560456447293
41, -388.97, -612.18, -301.60, -255.51, 0.000, 0.000, 0.000, 22:07:27.294, 1560456447294
42, -377.09, -555.27, -317.87, -271.33, 0.000, 0.000, 0.000, 22:07:27.294, 1560456447294
43, -376.12, -531.56, -305.13, -252.50, 0.000, 0.000, 0.000, 22:07:27.306, 1560456447306
44, -389.36, -598.12, -280.33, -246.66, 0.000, 0.000, 0.000, 22:07:27.306, 1560456447306
45, -390.22, -612.89, -270.94, -263.00, 0.000, 0.000, 0.000, 22:07:27.306, 1560456447306
46, -390.56, -551.04, -302.21, -272.26, 0.000, 0.000, 0.000, 22:07:27.306, 1560456447306
47, -387.36, -528.50, -296.63, -252.31, 0.000, 0.000, 0.000, 22:07:27.307, 1560456447307
48, -385.10, -584.13, -296.60, -246.53, 0.000, 0.000, 0.000, 22:07:27.307, 1560456447307
53, -400.48, -599.63, -297.53, -258.74, 0.000, 0.000, 0.000, 22:07:27.308, 1560456447308
54, -405.32, -548.76, -305.37, -266.37, 0.000, 0.000, 0.000, 22:07:27.308, 1560456447308
55, -410.15, -532.09, -320.41, -258.25, 0.000, 0.000, 0.000, 22:07:27.319, 1560456447319
56, -420.43, -597.79, -298.31, -244.93, 0.000, 0.000, 0.000, 22:07:27.319, 1560456447319
57, -421.56, -613.30, -291.10, -254.32, 0.000, 0.000, 0.000, 22:07:27.335, 1560456447335
58, -411.04, -552.92, -275.00, -267.27, 0.000, 0.000, 0.000, 22:07:27.335, 1560456447335
59, -406.32, -524.18, -283.70, -247.52, 0.000, 0.000, 0.000, 22:07:27.336, 1560456447336
60, -416.07, -596.32, -267.20, -248.45, 0.000, 0.000, 0.000, 22:07:27.336, 1560456447336
61, -418.65, -610.05, -313.10, -261.90, 0.000, 0.000, 0.000, 22:07:27.382, 1560456447382
62, -409.30, -552.74, -295.86, -266.36, 0.000, 0.000, 0.000, 22:07:27.382, 1560456447382
63, -403.51, -527.97, -302.80, -254.68, 0.000, 0.000, 0.000, 22:07:27.383, 1560456447383
64, -413.75, -594.26, -291.15, -256.33, 0.000, 0.000, 0.000, 22:07:27.383, 1560456447383
65, -431.66, -613.52, -309.51, -265.90, 0.000, 0.000, 0.000, 22:07:27.384, 1560456447384
66, -405.62, -536.47, -312.49, -262.18, 0.000, 0.000, 0.000, 22:07:27.384, 1560456447384
67, -407.35, -516.45, -300.48, -251.99, 0.000, 0.000, 0.000, 22:07:27.395, 1560456447395
68, -406.04, -578.04, -278.98, -237.95, 0.000, 0.000, 0.000, 22:07:27.395, 1560456447395
69, -425.76, -607.79, -274.99, -258.93, 0.000, 0.000, 0.000, 22:07:27.396, 1560456447396
70, -409.05, -548.70, -287.02, -269.20, 0.000, 0.000, 0.000, 22:07:27.396, 1560456447396
71, -417.14, -542.01, -287.90, -253.47, 0.000, 0.000, 0.000, 22:07:27.397, 1560456447397
72, -430.22, -607.91, -284.38, -257.83, 0.000, 0.000, 0.000, 22:07:27.397, 1560456447397
73, -408.79, -611.37, -288.48, -256.18, 0.000, 0.000, 0.000, 22:07:27.409, 1560456447409
74, -400.14, -540.81, -293.56, -263.47, 0.000, 0.000, 0.000, 22:07:27.409, 1560456447409
75, -409.92, -525.74, -280.74, -261.77, 0.000, 0.000, 0.000, 22:07:27.425, 1560456447425
76, -409.46, -583.85, -269.83, -245.23, 0.000, 0.000, 0.000, 22:07:27.425, 1560456447425
77, -419.33, -612.67, -305.61, -264.56, 0.000, 0.000, 0.000, 22:07:27.425, 1560456447425
78, -413.71, -540.87, -302.40, -266.02, 0.000, 0.000, 0.000, 22:07:27.425, 1560456447425
79, -404.23, -502.15, -295.65, -250.25, 0.000, 0.000, 0.000, 22:07:27.472, 1560456447472
80, -419.95, -583.60, -314.98, -245.41, 0.000, 0.000, 0.000, 22:07:27.472, 1560456447472
81, -423.52, -599.75, -320.20, -263.77, 0.000, 0.000, 0.000, 22:07:27.472, 1560456447472
82, -413.09, -539.57, -323.46, -280.36, 0.000, 0.000, 0.000, 22:07:27.472, 1560456447472
83, -390.24, -509.40, -297.28, -245.48, 0.000, 0.000, 0.000, 22:07:27.473, 1560456447473
84, -420.35, -593.48, -300.07, -252.88, 0.000, 0.000, 0.000, 22:07:27.473, 1560456447473
85, -422.31, -608.44, -306.08, -265.63, 0.000, 0.000, 0.000, 22:07:27.474, 1560456447474
86, -411.08, -545.37, -290.55, -270.99, 0.000, 0.000, 0.000, 22:07:27.474, 1560456447474
87, -425.63, -530.05, -286.79, -260.00, 0.000, 0.000, 0.000, 22:07:27.486, 1560456447486
88, -431.16, -600.36, -287.44, -258.15, 0.000, 0.000, 0.000, 22:07:27.486, 1560456447486
89, -432.52, -611.97, -284.23, -259.98, 0.000, 0.000, 0.000, 22:07:27.486, 1560456447486
90, -409.02, -545.65, -298.45, -263.48, 0.000, 0.000, 0.000, 22:07:27.486, 1560456447486
91, -420.49, -526.32, -309.16, -262.82, 0.000, 0.000, 0.000, 22:07:27.515, 1560456447515
92, -424.35, -592.62, -302.27, -244.66, 0.000, 0.000, 0.000, 22:07:27.515, 1560456447515
93, -419.32, -606.74, -299.83, -268.09, 0.000, 0.000, 0.000, 22:07:27.516, 1560456447516
94, -421.61, -554.33, -312.01, -275.92, 0.000, 0.000, 0.000, 22:07:27.516, 1560456447516
95, -434.82, -543.05, -318.84, -262.22, 0.000, 0.000, 0.000, 22:07:27.517, 1560456447517
96, -436.18, -600.32, -306.83, -259.24, 0.000, 0.000, 0.000, 22:07:27.517, 1560456447517
97, -422.02, -597.76, -296.22, -254.08, 0.000, 0.000, 0.000, 22:07:27.545, 1560456447545
98, -411.65, -545.63, -300.30, -262.92, 0.000, 0.000, 0.000, 22:07:27.545, 1560456447545
99, -441.31, -545.86, -320.40, -276.45, 0.000, 0.000, 0.000, 22:07:27.546, 1560456447546
100, -450.37, -605.52, -310.94, -274.25, 0.000, 0.000, 0.000, 22:07:27.546, 1560456447546
101, -430.65, -606.93, -313.37, -263.23, 0.000, 0.000, 0.000, 22:07:27.547, 1560456447547
102, -423.09, -570.83, -312.18, -280.35, 0.000, 0.000, 0.000, 22:07:27.547, 1560456447547
103, -423.13, -540.49, -293.75, -262.25, 0.000, 0.000, 0.000, 22:07:27.559, 1560456447559
104, -416.51, -585.83, -299.21, -239.60, 0.000, 0.000, 0.000, 22:07:27.559, 1560456447559
105, -418.89, -612.39, -311.21, -271.72, 0.000, 0.000, 0.000, 22:07:27.574, 1560456447574
106, -436.18, -568.65, -317.21, -288.64, 0.000, 0.000, 0.000, 22:07:27.574, 1560456447574
107, -434.87, -541.90, -305.53, -263.93, 0.000, 0.000, 0.000, 22:07:27.589, 1560456447589
108, -448.51, -609.18, -313.56, -263.98, 0.000, 0.000, 0.000, 22:07:27.589, 1560456447589
109, -430.28, -616.78, -306.68, -272.87, 0.000, 0.000, 0.000, 22:07:27.590, 1560456447590
110, -414.07, -550.60, -306.18, -269.84, 0.000, 0.000, 0.000, 22:07:27.590, 1560456447590
111, -398.82, -525.34, -330.89, -250.33, 0.000, 0.000, 0.000, 22:07:27.605, 1560456447605
112, -426.53, -600.37, -289.21, -262.99, 0.000, 0.000, 0.000, 22:07:27.605, 1560456447605
113, -431.84, -614.23, -286.53, -266.71, 0.000, 0.000, 0.000, 22:07:27.636, 1560456447636
114, -420.74, -557.81, -289.41, -266.72, 0.000, 0.000, 0.000, 22:07:27.636, 1560456447636
115, -421.89, -530.70, -307.86, -271.51, 0.000, 0.000, 0.000, 22:07:27.637, 1560456447637
116, -425.65, -597.36, -308.40, -251.67, 0.000, 0.000, 0.000, 22:07:27.637, 1560456447637
117, -425.59, -624.04, -313.61, -265.87, 0.000, 0.000, 0.000, 22:07:27.637, 1560456447637
118, -415.29, -566.65, -314.80, -276.65, 0.000, 0.000, 0.000, 22:07:27.637, 1560456447637
119, -398.90, -534.89, -298.00, -242.01, 0.000, 0.000, 0.000, 22:07:27.638, 1560456447638
120, -437.35, -620.63, -310.45, -264.41, 0.000, 0.000, 0.000, 22:07:27.638, 1560456447638
121, -447.73, -635.41, -295.50, -274.48, 0.000, 0.000, 0.000, 22:07:27.649, 1560456447649
122, -429.87, -581.11, -290.06, -277.87, 0.000, 0.000, 0.000, 22:07:27.649, 1560456447649
123, -423.47, -549.87, -258.35, -249.83, 0.000, 0.000, 0.000, 22:07:27.665, 1560456447665
124, -419.20, -599.19, -244.67, -232.55, 0.000, 0.000, 0.000, 22:07:27.665, 1560456447665
125, -434.92, -632.85, -270.15, -248.90, 0.000, 0.000, 0.000, 22:07:27.666, 1560456447666
126, -421.85, -564.01, -273.14, -270.34, 0.000, 0.000, 0.000, 22:07:27.666, 1560456447666
127, -421.38, -548.70, -295.07, -268.17, 0.000, 0.000, 0.000, 22:07:27.679, 1560456447679
128, -430.80, -607.11, -279.80, -247.55, 0.000, 0.000, 0.000, 22:07:27.679, 1560456447679
129, -410.06, -613.43, -267.15, -246.42, 0.000, 0.000, 0.000, 22:07:27.695, 1560456447695
130, -428.11, -576.17, -307.37, -281.25, 0.000, 0.000, 0.000, 22:07:27.695, 1560456447695
131, -408.25, -541.29, -292.15, -245.32, 0.000, 0.000, 0.000, 22:07:27.695, 1560456447695
132, -404.01, -595.35, -293.04, -233.88, 0.000, 0.000, 0.000, 22:07:27.695, 1560456447695
133, -415.10, -606.20, -294.39, -249.37, 0.000, 0.000, 0.000, 22:07:27.709, 1560456447709
134, -394.40, -551.44, -298.64, -252.42, 0.000, 0.000, 0.000, 22:07:27.709, 1560456447709
135, -396.14, -526.56, -305.95, -249.20, 0.000, 0.000, 0.000, 22:07:27.725, 1560456447725
136, -422.20, -604.27, -286.19, -257.94, 0.000, 0.000, 0.000, 22:07:27.725, 1560456447725
137, -412.23, -616.37, -269.10, -251.94, 0.000, 0.000, 0.000, 22:07:27.725, 1560456447725
138, -402.38, -559.68, -281.08, -256.36, 0.000, 0.000, 0.000, 22:07:27.725, 1560456447725
139, -403.09, -533.50, -304.52, -256.37, 0.000, 0.000, 0.000, 22:07:27.739, 1560456447739
140, -406.81, -590.50, -280.55, -237.87, 0.000, 0.000, 0.000, 22:07:27.739, 1560456447739
141, -404.82, -608.47, -288.05, -251.83, 0.000, 0.000, 0.000, 22:07:27.755, 1560456447755
142, -398.74, -551.13, -277.03, -251.92, 0.000, 0.000, 0.000, 22:07:27.755, 1560456447755
143, -400.11, -521.82, -276.58, -245.34, 0.000, 0.000, 0.000, 22:07:27.755, 1560456447755
144, -409.83, -598.44, -280.18, -249.33, 0.000, 0.000, 0.000, 22:07:27.755, 1560456447755
145, -397.42, -606.30, -279.49, -250.99, 0.000, 0.000, 0.000, 22:07:27.769, 1560456447769
146, -394.20, -554.22, -293.75, -263.93, 0.000, 0.000, 0.000, 22:07:27.769, 1560456447769
147, -403.05, -535.88, -316.04, -257.79, 0.000, 0.000, 0.000, 22:07:27.800, 1560456447800
148, -417.33, -608.50, -295.56, -244.47, 0.000, 0.000, 0.000, 22:07:27.800, 1560456447800
149, -421.79, -628.42, -283.96, -252.13, 0.000, 0.000, 0.000, 22:07:27.801, 1560456447801
150, -408.51, -569.84, -285.24, -262.33, 0.000, 0.000, 0.000, 22:07:27.801, 1560456447801
151, -414.70, -540.43, -292.76, -251.84, 0.000, 0.000, 0.000, 22:07:27.815, 1560456447815
152, -422.66, -602.80, -281.04, -241.12, 0.000, 0.000, 0.000, 22:07:27.815, 1560456447815
153, -420.56, -624.01, -285.30, -259.43, 0.000, 0.000, 0.000, 22:07:27.816, 1560456447816
154, -417.86, -568.84, -273.79, -271.09, 0.000, 0.000, 0.000, 22:07:27.816, 1560456447816
155, -420.70, -545.37, -295.10, -254.14, 0.000, 0.000, 0.000, 22:07:27.817, 1560456447817
156, -425.51, -607.31, -277.51, -246.87, 0.000, 0.000, 0.000, 22:07:27.817, 1560456447817
157, -424.41, -629.02, -311.51, -259.94, 0.000, 0.000, 0.000, 22:07:27.829, 1560456447829
158, -414.18, -572.17, -280.29, -262.40, 0.000, 0.000, 0.000, 22:07:27.829, 1560456447829
159, -407.43, -544.73, -285.31, -257.04, 0.000, 0.000, 0.000, 22:07:27.845, 1560456447845
160, -411.16, -596.79, -258.56, -242.53, 0.000, 0.000, 0.000, 22:07:27.845, 1560456447845
161, -405.23, -609.85, -306.45, -245.01, 0.000, 0.000, 0.000, 22:07:27.846, 1560456447846
162, -402.93, -553.13, -297.05, -260.97, 0.000, 0.000, 0.000, 22:07:27.846, 1560456447846
163, -398.40, -524.06, -296.00, -246.07, 0.000, 0.000, 0.000, 22:07:27.859, 1560456447859
164, -416.49, -597.18, -295.19, -243.04, 0.000, 0.000, 0.000, 22:07:27.859, 1560456447859
165, -411.86, -606.82, -282.57, -251.50, 0.000, 0.000, 0.000, 22:07:27.874, 1560456447874
166, -408.04, -554.14, -275.36, -267.41, 0.000, 0.000, 0.000, 22:07:27.874, 1560456447874
167, -409.54, -531.33, -280.84, -246.18, 0.000, 0.000, 0.000, 22:07:27.875, 1560456447875
168, -412.51, -590.29, -253.68, -231.82, 0.000, 0.000, 0.000, 22:07:27.875, 1560456447875
169, -427.92, -621.60, -260.24, -256.02, 0.000, 0.000, 0.000, 22:07:27.889, 1560456447889
170, -421.94, -569.52, -283.91, -263.12, 0.000, 0.000, 0.000, 22:07:27.889, 1560456447889
171, -419.64, -539.19, -292.92, -255.13, 0.000, 0.000, 0.000, 22:07:27.905, 1560456447905
172, -419.89, -606.31, -293.02, -259.42, 0.000, 0.000, 0.000, 22:07:27.905, 1560456447905
173, -418.33, -611.99, -279.20, -250.12, 0.000, 0.000, 0.000, 22:07:27.905, 1560456447905
174, -410.72, -555.49, -291.63, -262.62, 0.000, 0.000, 0.000, 22:07:27.905, 1560456447905
175, -411.24, -542.46, -298.08, -261.15, 0.000, 0.000, 0.000, 22:07:27.919, 1560456447919
176, -409.96, -592.34, -269.81, -238.67, 0.000, 0.000, 0.000, 22:07:27.919, 1560456447919
177, -428.75, -616.94, -295.27, -252.16, 0.000, 0.000, 0.000, 22:07:27.935, 1560456447935
178, -423.27, -561.41, -320.02, -270.53, 0.000, 0.000, 0.000, 22:07:27.935, 1560456447935
179, -396.91, -530.78, -296.19, -250.86, 0.000, 0.000, 0.000, 22:07:27.935, 1560456447935
180, -404.82, -587.92, -281.89, -245.70, 0.000, 0.000, 0.000, 22:07:27.935, 1560456447935
181, -424.86, -618.95, -271.10, -263.30, 0.000, 0.000, 0.000, 22:07:27.949, 1560456447949
182, -413.13, -556.90, -281.41, -267.21, 0.000, 0.000, 0.000, 22:07:27.949, 1560456447949
183, -423.83, -533.78, -287.59, -253.38, 0.000, 0.000, 0.000, 22:07:27.980, 1560456447980
184, -423.23, -597.29, -280.85, -241.95, 0.000, 0.000, 0.000, 22:07:27.980, 1560456447980
185, -422.79, -621.12, -278.65, -253.35, 0.000, 0.000, 0.000, 22:07:27.981, 1560456447981
186, -419.22, -574.13, -288.68, -269.53, 0.000, 0.000, 0.000, 22:07:27.981, 1560456447981
187, -411.33, -540.58, -272.30, -249.89, 0.000, 0.000, 0.000, 22:07:27.982, 1560456447982
188, -414.03, -594.57, -264.59, -234.03, 0.000, 0.000, 0.000, 22:07:27.982, 1560456447982
189, -423.34, -621.49, -257.61, -253.44, 0.000, 0.000, 0.000, 22:07:27.995, 1560456447995
190, -432.81, -577.17, -311.94, -283.68, 0.000, 0.000, 0.000, 22:07:27.995, 1560456447995
191, -424.04, -541.70, -302.97, -261.48, 0.000, 0.000, 0.000, 22:07:27.995, 1560456447995
192, -435.02, -607.93, -274.75, -256.01, 0.000, 0.000, 0.000, 22:07:27.995, 1560456447995
193, -440.69, -631.94, -303.17, -270.11, 0.000, 0.000, 0.000, 22:07:28.025, 1560456448025
194, -431.80, -574.48, -291.04, -274.13, 0.000, 0.000, 0.000, 22:07:28.025, 1560456448025
195, -419.92, -537.46, -283.76, -252.99, 0.000, 0.000, 0.000, 22:07:28.026, 1560456448026
196, -415.46, -604.88, -277.50, -248.60, 0.000, 0.000, 0.000, 22:07:28.026, 1560456448026
197, -428.55, -622.29, -308.03, -254.76, 0.000, 0.000, 0.000, 22:07:28.027, 1560456448027
198, -421.38, -577.11, -307.71, -274.20, 0.000, 0.000, 0.000, 22:07:28.027, 1560456448027
199, -422.57, -539.74, -304.04, -259.21, 0.000, 0.000, 0.000, 22:07:28.040, 1560456448040
200, -421.24, -602.17, -291.28, -246.27, 0.000, 0.000, 0.000, 22:07:28.040, 1560456448040
0, -401.83, -621.43, -290.47, -269.15, 0.000, 0.000, 0.000, 22:07:28.040, 1560456448040
1, -387.15, -564.52, -299.23, -270.94, 0.000, 0.000, 0.000, 22:07:28.054, 1560456448054
2, -402.00, -549.41, -295.73, -264.87, 0.000, 0.000, 0.000, 22:07:28.054, 1560456448054
3, -402.13, -604.72, -275.34, -251.36, 0.000, 0.000, 0.000, 22:07:28.070, 1560456448070
4, -403.56, -629.95, -299.91, -267.95, 0.000, 0.000, 0.000, 22:07:28.070, 1560456448070
5, -390.14, -586.72, -302.22, -278.95, 0.000, 0.000, 0.000, 22:07:28.070, 1560456448070
6, -407.07, -555.17, -294.97, -265.02, 0.000, 0.000, 0.000, 22:07:28.070, 1560456448070
7, -411.18, -621.63, -292.22, -255.85, 0.000, 0.000, 0.000, 22:07:28.084, 1560456448084
8, -410.90, -639.53, -290.60, -268.02, 0.000, 0.000, 0.000, 22:07:28.084, 1560456448084
9, -401.59, -579.32, -297.36, -277.81, 0.000, 0.000, 0.000, 22:07:28.099, 1560456448099
10, -396.52, -549.95, -293.03, -268.79, 0.000, 0.000, 0.000, 22:07:28.099, 1560456448099
11, -408.22, -614.58, -293.97, -247.52, 0.000, 0.000, 0.000, 22:07:28.100, 1560456448100
12, -418.64, -638.11, -306.50, -269.76, 0.000, 0.000, 0.000, 22:07:28.100, 1560456448100
13, -396.05, -576.84, -285.88, -273.88, 0.000, 0.000, 0.000, 22:07:28.114, 1560456448114
14, -408.56, -551.31, -281.09, -258.90, 0.000, 0.000, 0.000, 22:07:28.114, 1560456448114
15, -426.23, -624.67, -289.48, -257.13, 0.000, 0.000, 0.000, 22:07:28.129, 1560456448129
16, -419.54, -646.09, -308.82, -276.51, 0.000, 0.000, 0.000, 22:07:28.129, 1560456448129
17, -408.40, -588.04, -297.41, -278.91, 0.000, 0.000, 0.000, 22:07:28.130, 1560456448130
18, -404.51, -553.21, -307.35, -272.84, 0.000, 0.000, 0.000, 22:07:28.130, 1560456448130
19, -419.46, -611.90, -289.21, -257.10, 0.000, 0.000, 0.000, 22:07:28.144, 1560456448144
20, -399.73, -624.60, -286.34, -265.18, 0.000, 0.000, 0.000, 22:07:28.144, 1560456448144
21, -417.57, -586.84, -310.68, -291.40, 0.000, 0.000, 0.000, 22:07:28.207, 1560456448207
22, -401.63, -555.71, -309.68, -274.67, 0.000, 0.000, 0.000, 22:07:28.207, 1560456448207
23, -411.38, -605.98, -306.07, -257.98, 0.000, 0.000, 0.000, 22:07:28.207, 1560456448207
24, -414.44, -632.55, -307.50, -269.33, 0.000, 0.000, 0.000, 22:07:28.207, 1560456448207
25, -416.21, -575.53, -302.68, -278.54, 0.000, 0.000, 0.000, 22:07:28.208, 1560456448208
26, -397.15, -540.84, -310.41, -267.48, 0.000, 0.000, 0.000, 22:07:28.208, 1560456448208
27, -412.81, -607.15, -302.69, -260.71, 0.000, 0.000, 0.000, 22:07:28.209, 1560456448209
28, -425.42, -631.38, -308.39, -276.33, 0.000, 0.000, 0.000, 22:07:28.209, 1560456448209
29, -410.59, -584.58, -276.19, -285.14, 0.000, 0.000, 0.000, 22:07:28.221, 1560456448221
30, -418.10, -562.11, -314.03, -269.39, 0.000, 0.000, 0.000, 22:07:28.221, 1560456448221
31, -425.61, -632.30, -325.27, -269.91, 0.000, 0.000, 0.000, 22:07:28.222, 1560456448222
32, -416.95, -640.93, -293.65, -266.48, 0.000, 0.000, 0.000, 22:07:28.222, 1560456448222
33, -411.32, -594.72, -296.86, -286.98, 0.000, 0.000, 0.000, 22:07:28.222, 1560456448222
34, -414.55, -568.81, -288.67, -276.77, 0.000, 0.000, 0.000, 22:07:28.222, 1560456448222
35, -425.28, -622.00, -295.38, -267.43, 0.000, 0.000, 0.000, 22:07:28.223, 1560456448223
36, -419.58, -645.79, -297.13, -268.81, 0.000, 0.000, 0.000, 22:07:28.223, 1560456448223
37, -388.76, -583.86, -299.70, -286.06, 0.000, 0.000, 0.000, 22:07:28.234, 1560456448234
38, -395.54, -544.38, -306.41, -259.35, 0.000, 0.000, 0.000, 22:07:28.234, 1560456448234
39, -406.65, -604.28, -299.13, -254.92, 0.000, 0.000, 0.000, 22:07:28.251, 1560456448251
40, -416.80, -641.43, -306.09, -276.97, 0.000, 0.000, 0.000, 22:07:28.251, 1560456448251
41, -400.42, -585.31, -308.55, -279.04, 0.000, 0.000, 0.000, 22:07:28.251, 1560456448251
42, -408.58, -555.66, -324.92, -278.22, 0.000, 0.000, 0.000, 22:07:28.251, 1560456448251
43, -427.19, -629.99, -313.29, -276.88, 0.000, 0.000, 0.000, 22:07:28.264, 1560456448264
44, -424.53, -645.88, -294.01, -264.28, 0.000, 0.000, 0.000, 22:07:28.264, 1560456448264
45, -409.35, -587.98, -291.57, -285.40, 0.000, 0.000, 0.000, 22:07:28.279, 1560456448279
46, -411.70, -555.62, -298.81, -275.48, 0.000, 0.000, 0.000, 22:07:28.279, 1560456448279
47, -411.33, -607.93, -274.63, -254.95, 0.000, 0.000, 0.000, 22:07:28.280, 1560456448280
48, -407.39, -627.27, -296.89, -262.73, 0.000, 0.000, 0.000, 22:07:28.280, 1560456448280
49, -409.25, -580.23, -287.90, -277.42, 0.000, 0.000, 0.000, 22:07:28.294, 1560456448294
50, -408.44, -558.30, -300.98, -272.77, 0.000, 0.000, 0.000, 22:07:28.294, 1560456448294
51, -418.60, -616.50, -279.59, -261.11, 0.000, 0.000, 0.000, 22:07:28.309, 1560456448309
52, -421.05, -634.93, -274.32, -270.77, 0.000, 0.000, 0.000, 22:07:28.309, 1560456448309
53, -422.81, -600.96, -295.82, -281.72, 0.000, 0.000, 0.000, 22:07:28.310, 1560456448310
54, -406.24, -557.81, -294.28, -276.30, 0.000, 0.000, 0.000, 22:07:28.310, 1560456448310
55, -415.03, -612.46, -285.60, -256.64, 0.000, 0.000, 0.000, 22:07:28.324, 1560456448324
56, -421.15, -637.57, -301.21, -270.61, 0.000, 0.000, 0.000, 22:07:28.324, 1560456448324
57, -433.44, -589.26, -318.92, -285.25, 0.000, 0.000, 0.000, 22:07:28.340, 1560456448340
58, -430.73, -553.65, -309.08, -279.61, 0.000, 0.000, 0.000, 22:07:28.340, 1560456448340
59, -433.12, -619.53, -283.40, -265.73, 0.000, 0.000, 0.000, 22:07:28.340, 1560456448340
60, -443.88, -646.17, -308.71, -281.28, 0.000, 0.000, 0.000, 22:07:28.340, 1560456448340
61, -425.19, -601.34, -318.77, -296.07, 0.000, 0.000, 0.000, 22:07:28.354, 1560456448354
62, -428.94, -560.36, -305.66, -276.52, 0.000, 0.000, 0.000, 22:07:28.354, 1560456448354
63, -436.92, -622.63, -306.75, -270.59, 0.000, 0.000, 0.000, 22:07:28.370, 1560456448370
64, -424.60, -635.46, -303.50, -279.82, 0.000, 0.000, 0.000, 22:07:28.370, 1560456448370
65, -416.96, -581.11, -296.77, -282.48, 0.000, 0.000, 0.000, 22:07:28.371, 1560456448371
66, -422.21, -552.79, -302.50, -274.11, 0.000, 0.000, 0.000, 22:07:28.371, 1560456448371
67, -421.50, -612.27, -284.85, -268.13, 0.000, 0.000, 0.000, 22:07:28.384, 1560456448384
68, -431.92, -629.99, -299.34, -269.40, 0.000, 0.000, 0.000, 22:07:28.384, 1560456448384
69, -407.94, -572.95, -312.20, -276.75, 0.000, 0.000, 0.000, 22:07:28.400, 1560456448400
70, -401.25, -533.43, -286.73, -262.89, 0.000, 0.000, 0.000, 22:07:28.400, 1560456448400
71, -410.24, -598.54, -308.29, -260.20, 0.000, 0.000, 0.000, 22:07:28.400, 1560456448400
72, -423.69, -631.93, -306.26, -279.02, 0.000, 0.000, 0.000, 22:07:28.400, 1560456448400
73, -415.14, -578.98, -297.57, -283.30, 0.000, 0.000, 0.000, 22:07:28.430, 1560456448430
74, -416.21, -548.07, -301.36, -264.08, 0.000, 0.000, 0.000, 22:07:28.430, 1560456448430
75, -442.34, -621.22, -304.33, -272.42, 0.000, 0.000, 0.000, 22:07:28.431, 1560456448431
76, -438.82, -649.24, -310.47, -282.51, 0.000, 0.000, 0.000, 22:07:28.431, 1560456448431
77, -425.90, -594.53, -316.67, -286.93, 0.000, 0.000, 0.000, 22:07:28.432, 1560456448432
78, -430.87, -571.80, -308.99, -287.28, 0.000, 0.000, 0.000, 22:07:28.432, 1560456448432
79, -446.99, -633.90, -292.55, -275.83, 0.000, 0.000, 0.000, 22:07:28.444, 1560456448444
80, -441.33, -652.86, -299.34, -285.48, 0.000, 0.000, 0.000, 22:07:28.444, 1560456448444
81, -440.66, -606.86, -297.05, -296.44, 0.000, 0.000, 0.000, 22:07:28.460, 1560456448460
82, -434.28, -575.70, -320.12, -284.82, 0.000, 0.000, 0.000, 22:07:28.460, 1560456448460
83, -443.47, -630.27, -298.03, -274.06, 0.000, 0.000, 0.000, 22:07:28.460, 1560456448460
84, -422.07, -643.64, -290.71, -276.81, 0.000, 0.000, 0.000, 22:07:28.460, 1560456448460
85, -404.58, -584.72, -310.45, -285.84, 0.000, 0.000, 0.000, 22:07:28.474, 1560456448474
86, -420.43, -561.19, -324.12, -280.45, 0.000, 0.000, 0.000, 22:07:28.474, 1560456448474
87, -426.54, -613.55, -313.79, -278.88, 0.000, 0.000, 0.000, 22:07:28.490, 1560456448490
88, -424.37, -634.66, -324.54, -283.09, 0.000, 0.000, 0.000, 22:07:28.490, 1560456448490
89, -405.58, -575.96, -306.94, -276.38, 0.000, 0.000, 0.000, 22:07:28.490, 1560456448490
90, -406.79, -545.64, -304.68, -264.32, 0.000, 0.000, 0.000, 22:07:28.490, 1560456448490
91, -422.71, -623.87, -306.88, -266.16, 0.000, 0.000, 0.000, 22:07:28.504, 1560456448504
92, -436.75, -651.93, -309.44, -286.56, 0.000, 0.000, 0.000, 22:07:28.504, 1560456448504
93, -432.62, -603.49, -314.19, -296.57, 0.000, 0.000, 0.000, 22:07:28.520, 1560456448520
94, -427.52, -564.92, -300.54, -277.18, 0.000, 0.000, 0.000, 22:07:28.520, 1560456448520
95, -451.46, -640.42, -301.24, -282.69, 0.000, 0.000, 0.000, 22:07:28.520, 1560456448520
96, -455.95, -671.07, -315.70, -292.62, 0.000, 0.000, 0.000, 22:07:28.520, 1560456448520
97, -447.07, -613.52, -305.79, -302.08, 0.000, 0.000, 0.000, 22:07:28.534, 1560456448534
98, -435.71, -573.82, -297.43, -274.66, 0.000, 0.000, 0.000, 22:07:28.534, 1560456448534
99, -443.26, -638.24, -322.77, -277.47, 0.000, 0.000, 0.000, 22:07:28.550, 1560456448550
100, -445.14, -660.90, -318.73, -293.94, 0.000, 0.000, 0.000, 22:07:28.550, 1560456448550
101, -428.69, -603.82, -323.85, -293.46, 0.000, 0.000, 0.000, 22:07:28.551, 1560456448551
102, -428.12, -564.41, -337.69, -280.40, 0.000, 0.000, 0.000, 22:07:28.551, 1560456448551
103, -426.83, -621.67, -322.29, -276.80, 0.000, 0.000, 0.000, 22:07:28.564, 1560456448564
104, -428.94, -646.61, -318.61, -283.14, 0.000, 0.000, 0.000, 22:07:28.564, 1560456448564
105, -420.93, -598.72, -326.76, -292.97, 0.000, 0.000, 0.000, 22:07:28.595, 1560456448595
106, -425.27, -572.29, -330.18, -283.73, 0.000, 0.000, 0.000, 22:07:28.595, 1560456448595
107, -437.36, -629.94, -319.10, -269.61, 0.000, 0.000, 0.000, 22:07:28.596, 1560456448596
108, -429.61, -660.96, -304.49, -284.34, 0.000, 0.000, 0.000, 22:07:28.596, 1560456448596
109, -430.34, -602.38, -313.80, -296.53, 0.000, 0.000, 0.000, 22:07:28.597, 1560456448597
110, -414.87, -562.42, -293.47, -274.25, 0.000, 0.000, 0.000, 22:07:28.597, 1560456448597
111, -436.35, -627.69, -292.11, -270.99, 0.000, 0.000, 0.000, 22:07:28.610, 1560456448610
112, -425.42, -646.77, -294.89, -269.96, 0.000, 0.000, 0.000, 22:07:28.610, 1560456448610
113, -422.60, -607.57, -285.29, -278.73, 0.000, 0.000, 0.000, 22:07:28.625, 1560456448625
114, -419.94, -573.83, -321.99, -277.41, 0.000, 0.000, 0.000, 22:07:28.625, 1560456448625
115, -426.28, -620.78, -309.60, -272.02, 0.000, 0.000, 0.000, 22:07:28.625, 1560456448625
116, -439.19, -650.77, -289.45, -271.85, 0.000, 0.000, 0.000, 22:07:28.625, 1560456448625
117, -435.41, -616.75, -301.22, -286.10, 0.000, 0.000, 0.000, 22:07:28.639, 1560456448639
118, -447.83, -578.04, -291.73, -288.54, 0.000, 0.000, 0.000, 22:07:28.639, 1560456448639
119, -461.20, -650.48, -299.83, -286.11, 0.000, 0.000, 0.000, 22:07:28.640, 1560456448640
120, -448.47, -664.99, -308.51, -287.91, 0.000, 0.000, 0.000, 22:07:28.640, 1560456448640
121, -432.45, -610.91, -308.32, -290.24, 0.000, 0.000, 0.000, 22:07:28.654, 1560456448654
122, -417.01, -564.29, -318.26, -266.60, 0.000, 0.000, 0.000, 22:07:28.654, 1560456448654
123, -431.30, -628.36, -297.19, -268.41, 0.000, 0.000, 0.000, 22:07:28.670, 1560456448670
124, -421.64, -651.52, -299.26, -268.97, 0.000, 0.000, 0.000, 22:07:28.670, 1560456448670
125, -411.82, -593.20, -278.90, -271.53, 0.000, 0.000, 0.000, 22:07:28.670, 1560456448670
126, -413.49, -565.11, -319.60, -270.88, 0.000, 0.000, 0.000, 22:07:28.670, 1560456448670
127, -427.94, -624.20, -301.90, -271.34, 0.000, 0.000, 0.000, 22:07:28.700, 1560456448700
128, -417.33, -644.77, -303.05, -266.70, 0.000, 0.000, 0.000, 22:07:28.700, 1560456448700
129, -403.29, -588.32, -288.17, -280.21, 0.000, 0.000, 0.000, 22:07:28.701, 1560456448701
130, -402.41, -555.45, -296.97, -275.50, 0.000, 0.000, 0.000, 22:07:28.701, 1560456448701
131, -403.37, -604.82, -296.17, -260.30, 0.000, 0.000, 0.000, 22:07:28.702, 1560456448702
132, -405.44, -636.00, -313.07, -277.62, 0.000, 0.000, 0.000, 22:07:28.702, 1560456448702
133, -389.17, -572.18, -303.96, -280.90, 0.000, 0.000, 0.000, 22:07:28.714, 1560456448714
134, -397.52, -532.18, -299.80, -258.28, 0.000, 0.000, 0.000, 22:07:28.714, 1560456448714
135, -396.55, -605.40, -307.32, -267.61, 0.000, 0.000, 0.000, 22:07:28.730, 1560456448730
136, -404.66, -625.44, -306.83, -270.95, 0.000, 0.000, 0.000, 22:07:28.730, 1560456448730
137, -386.50, -575.95, -305.82, -273.11, 0.000, 0.000, 0.000, 22:07:28.744, 1560456448744
138, -391.94, -538.25, -308.17, -256.36, 0.000, 0.000, 0.000, 22:07:28.744, 1560456448744
139, -380.46, -595.35, -283.65, -249.41, 0.000, 0.000, 0.000, 22:07:28.745, 1560456448745
140, -395.85, -628.25, -287.68, -259.46, 0.000, 0.000, 0.000, 22:07:28.745, 1560456448745
141, -387.89, -577.81, -300.26, -276.22, 0.000, 0.000, 0.000, 22:07:28.760, 1560456448760
142, -381.94, -539.10, -290.42, -256.83, 0.000, 0.000, 0.000, 22:07:28.760, 1560456448760
143, -396.81, -601.82, -293.63, -250.08, 0.000, 0.000, 0.000, 22:07:28.760, 1560456448760
144, -391.62, -627.92, -306.24, -260.43, 0.000, 0.000, 0.000, 22:07:28.760, 1560456448760
145, -385.61, -579.71, -310.42, -275.47, 0.000, 0.000, 0.000, 22:07:28.790, 1560456448790
146, -379.31, -534.83, -300.51, -257.21, 0.000, 0.000, 0.000, 22:07:28.790, 1560456448790
147, -393.80, -592.07, -288.41, -240.54, 0.000, 0.000, 0.000, 22:07:28.791, 1560456448791
148, -396.73, -631.91, -289.95, -258.66, 0.000, 0.000, 0.000, 22:07:28.791, 1560456448791
149, -409.47, -592.77, -310.47, -280.55, 0.000, 0.000, 0.000, 22:07:28.792, 1560456448792
150, -398.99, -553.19, -294.81, -266.16, 0.000, 0.000, 0.000, 22:07:28.792, 1560456448792
151, -407.77, -604.36, -256.56, -248.41, 0.000, 0.000, 0.000, 22:07:28.804, 1560456448804
152, -405.64, -630.57, -251.56, -247.01, 0.000, 0.000, 0.000, 22:07:28.804, 1560456448804
153, -401.69, -579.90, -279.44, -275.42, 0.000, 0.000, 0.000, 22:07:28.819, 1560456448819
154, -403.31, -553.82, -299.30, -268.34, 0.000, 0.000, 0.000, 22:07:28.819, 1560456448819
155, -424.92, -617.53, -295.86, -264.24, 0.000, 0.000, 0.000, 22:07:28.820, 1560456448820
156, -417.07, -637.22, -298.83, -270.31, 0.000, 0.000, 0.000, 22:07:28.820, 1560456448820
157, -402.71, -588.68, -297.97, -281.20, 0.000, 0.000, 0.000, 22:07:28.834, 1560456448834
158, -394.58, -543.02, -285.29, -267.92, 0.000, 0.000, 0.000, 22:07:28.834, 1560456448834
159, -398.44, -594.36, -304.64, -252.47, 0.000, 0.000, 0.000, 22:07:28.850, 1560456448850
160, -397.89, -628.34, -282.14, -256.88, 0.000, 0.000, 0.000, 22:07:28.850, 1560456448850
161, -392.48, -583.31, -309.36, -275.21, 0.000, 0.000, 0.000, 22:07:28.850, 1560456448850
162, -397.49, -546.29, -292.80, -263.23, 0.000, 0.000, 0.000, 22:07:28.850, 1560456448850
163, -401.68, -604.04, -274.57, -258.26, 0.000, 0.000, 0.000, 22:07:28.864, 1560456448864
164, -402.98, -636.43, -294.43, -257.92, 0.000, 0.000, 0.000, 22:07:28.864, 1560456448864
165, -392.20, -576.35, -290.25, -262.46, 0.000, 0.000, 0.000, 22:07:28.880, 1560456448880
166, -399.09, -546.11, -253.79, -264.27, 0.000, 0.000, 0.000, 22:07:28.880, 1560456448880
167, -407.85, -604.52, -286.28, -255.33, 0.000, 0.000, 0.000, 22:07:28.880, 1560456448880
168, -420.59, -636.59, -301.50, -266.94, 0.000, 0.000, 0.000, 22:07:28.880, 1560456448880
169, -411.26, -598.58, -292.07, -284.71, 0.000, 0.000, 0.000, 22:07:28.894, 1560456448894
170, -404.53, -550.54, -271.09, -267.94, 0.000, 0.000, 0.000, 22:07:28.894, 1560456448894
171, -412.30, -603.61, -276.70, -259.64, 0.000, 0.000, 0.000, 22:07:28.910, 1560456448910
172, -398.29, -621.22, -282.98, -259.78, 0.000, 0.000, 0.000, 22:07:28.910, 1560456448910
173, -395.97, -579.85, -288.05, -267.08, 0.000, 0.000, 0.000, 22:07:28.910, 1560456448910
174, -411.33, -554.51, -312.09, -270.29, 0.000, 0.000, 0.000, 22:07:28.910, 1560456448910
175, -425.88, -613.40, -284.65, -260.24, 0.000, 0.000, 0.000, 22:07:28.924, 1560456448924
176, -412.18, -635.70, -302.64, -263.92, 0.000, 0.000, 0.000, 22:07:28.924, 1560456448924
177, -404.54, -591.01, -298.41, -284.94, 0.000, 0.000, 0.000, 22:07:28.940, 1560456448940
178, -405.61, -551.74, -322.52, -272.07, 0.000, 0.000, 0.000, 22:07:28.940, 1560456448940
179, -411.77, -612.29, -303.11, -260.91, 0.000, 0.000, 0.000, 22:07:28.940, 1560456448940
180, -426.26, -647.08, -297.85, -277.10, 0.000, 0.000, 0.000, 22:07:28.940, 1560456448940
181, -406.72, -589.07, -298.75, -283.28, 0.000, 0.000, 0.000, 22:07:28.954, 1560456448954
182, -404.11, -547.26, -285.95, -256.29, 0.000, 0.000, 0.000, 22:07:28.954, 1560456448954
183, -411.18, -608.42, -276.95, -261.77, 0.000, 0.000, 0.000, 22:07:28.970, 1560456448970
184, -439.52, -657.95, -302.86, -282.70, 0.000, 0.000, 0.000, 22:07:28.970, 1560456448970
185, -419.59, -599.70, -302.81, -282.03, 0.000, 0.000, 0.000, 22:07:28.970, 1560456448970
186, -418.60, -568.54, -315.32, -278.43, 0.000, 0.000, 0.000, 22:07:28.970, 1560456448970
187, -420.29, -617.92, -295.44, -261.73, 0.000, 0.000, 0.000, 22:07:28.984, 1560456448984
188, -421.84, -644.74, -293.14, -271.67, 0.000, 0.000, 0.000, 22:07:28.984, 1560456448984
189, -411.91, -599.40, -293.90, -282.92, 0.000, 0.000, 0.000, 22:07:28.999, 1560456448999
190, -409.34, -556.14, -294.87, -266.84, 0.000, 0.000, 0.000, 22:07:28.999, 1560456448999
191, -405.59, -612.23, -300.79, -259.88, 0.000, 0.000, 0.000, 22:07:29.000, 1560456449000
192, -429.01, -646.87, -287.38, -273.16, 0.000, 0.000, 0.000, 22:07:29.000, 1560456449000
193, -417.14, -599.64, -307.11, -289.60, 0.000, 0.000, 0.000, 22:07:29.014, 1560456449014
194, -422.57, -560.63, -316.15, -273.84, 0.000, 0.000, 0.000, 22:07:29.014, 1560456449014
195, -432.38, -627.16, -310.77, -267.48, 0.000, 0.000, 0.000, 22:07:29.030, 1560456449030
196, -419.50, -650.10, -305.68, -270.58, 0.000, 0.000, 0.000, 22:07:29.030, 1560456449030
197, -410.76, -591.96, -305.89, -275.08, 0.000, 0.000, 0.000, 22:07:29.030, 1560456449030
198, -412.98, -560.62, -313.50, -277.94, 0.000, 0.000, 0.000, 22:07:29.030, 1560456449030
199, -426.11, -626.20, -300.81, -270.55, 0.000, 0.000, 0.000, 22:07:29.045, 1560456449045
200, -436.03, -654.40, -305.47, -284.24, 0.000, 0.000, 0.000, 22:07:29.045, 1560456449045
0, -421.52, -600.05, -302.99, -281.73, 0.000, 0.000, 0.000, 22:07:29.045, 1560456449045
1, -427.77, -570.57, -313.72, -281.49, 0.000, 0.000, 0.000, 22:07:29.059, 1560456449059
2, -416.39, -621.46, -314.04, -263.17, 0.000, 0.000, 0.000, 22:07:29.059, 1560456449059
3, -420.18, -642.69, -287.02, -267.06, 0.000, 0.000, 0.000, 22:07:29.074, 1560456449074
4, -416.23, -599.36, -294.53, -286.25, 0.000, 0.000, 0.000, 22:07:29.074, 1560456449074
5, -433.13, -575.19, -305.90, -288.75, 0.000, 0.000, 0.000, 22:07:29.075, 1560456449075
6, -442.12, -634.52, -304.70, -283.80, 0.000, 0.000, 0.000, 22:07:29.075, 1560456449075
7, -438.60, -651.09, -309.36, -275.75, 0.000, 0.000, 0.000, 22:07:29.089, 1560456449089
8, -422.65, -602.05, -316.71, -286.30, 0.000, 0.000, 0.000, 22:07:29.089, 1560456449089
9, -424.49, -564.06, -318.64, -279.05, 0.000, 0.000, 0.000, 22:07:29.105, 1560456449105
10, -423.80, -619.68, -289.97, -271.51, 0.000, 0.000, 0.000, 22:07:29.105, 1560456449105
11, -424.07, -646.74, -304.08, -276.25, 0.000, 0.000, 0.000, 22:07:29.106, 1560456449106
12, -430.93, -603.70, -321.72, -305.18, 0.000, 0.000, 0.000, 22:07:29.106, 1560456449106
13, -417.63, -557.09, -321.71, -274.38, 0.000, 0.000, 0.000, 22:07:29.119, 1560456449119
14, -411.73, -610.90, -301.61, -261.82, 0.000, 0.000, 0.000, 22:07:29.119, 1560456449119
15, -408.00, -638.18, -292.77, -261.44, 0.000, 0.000, 0.000, 22:07:29.135, 1560456449135
16, -412.31, -598.99, -298.53, -284.25, 0.000, 0.000, 0.000, 22:07:29.135, 1560456449135
17, -418.98, -565.27, -306.92, -281.14, 0.000, 0.000, 0.000, 22:07:29.135, 1560456449135
18, -433.33, -623.51, -296.86, -272.33, 0.000, 0.000, 0.000, 22:07:29.135, 1560456449135
19, -428.85, -651.83, -292.27, -272.95, 0.000, 0.000, 0.000, 22:07:29.149, 1560456449149
20, -420.47, -604.59, -302.18, -279.54, 0.000, 0.000, 0.000, 22:07:29.149, 1560456449149
21, -408.47, -555.41, -307.80, -271.18, 0.000, 0.000, 0.000, 22:07:29.165, 1560456449165
22, -422.55, -615.48, -305.01, -272.32, 0.000, 0.000, 0.000, 22:07:29.165, 1560456449165
23, -418.52, -642.43, -291.74, -272.78, 0.000, 0.000, 0.000, 22:07:29.165, 1560456449165
24, -419.53, -598.37, -307.41, -286.83, 0.000, 0.000, 0.000, 22:07:29.165, 1560456449165
25, -410.44, -552.50, -299.00, -273.09, 0.000, 0.000, 0.000, 22:07:29.179, 1560456449179
26, -413.78, -612.64, -312.07, -268.29, 0.000, 0.000, 0.000, 22:07:29.179, 1560456449179
27, -423.93, -643.55, -307.46, -273.64, 0.000, 0.000, 0.000, 22:07:29.194, 1560456449194
28, -406.83, -591.98, -303.55, -286.41, 0.000, 0.000, 0.000, 22:07:29.194, 1560456449194
29, -400.68, -542.88, -296.08, -264.84, 0.000, 0.000, 0.000, 22:07:29.210, 1560456449210
30, -404.72, -597.47, -295.90, -256.11, 0.000, 0.000, 0.000, 22:07:29.210, 1560456449210
31, -406.96, -631.38, -304.09, -271.13, 0.000, 0.000, 0.000, 22:07:29.210, 1560456449210
32, -412.63, -583.58, -292.08, -279.85, 0.000, 0.000, 0.000, 22:07:29.210, 1560456449210
33, -417.67, -549.11, -302.33, -270.82, 0.000, 0.000, 0.000, 22:07:29.225, 1560456449225
34, -415.75, -607.90, -302.01, -267.72, 0.000, 0.000, 0.000, 22:07:29.225, 1560456449225
35, -422.65, -645.82, -275.86, -271.57, 0.000, 0.000, 0.000, 22:07:29.225, 1560456449225
36, -417.74, -588.24, -298.98, -287.74, 0.000, 0.000, 0.000, 22:07:29.225, 1560456449225
37, -422.42, -553.22, -321.61, -280.63, 0.000, 0.000, 0.000, 22:07:29.239, 1560456449239
38, -423.84, -609.81, -302.95, -263.93, 0.000, 0.000, 0.000, 22:07:29.239, 1560456449239
39, -429.99, -645.78, -293.59, -267.22, 0.000, 0.000, 0.000, 22:07:29.254, 1560456449254
40, -421.39, -599.57, -313.43, -281.52, 0.000, 0.000, 0.000, 22:07:29.254, 1560456449254
41, -418.71, -549.78, -307.11, -271.71, 0.000, 0.000, 0.000, 22:07:29.255, 1560456449255
42, -426.99, -609.96, -304.32, -275.80, 0.000, 0.000, 0.000, 22:07:29.255, 1560456449255
43, -428.06, -638.88, -301.02, -271.27, 0.000, 0.000, 0.000, 22:07:29.269, 1560456449269
44, -407.85, -582.24, -316.42, -282.47, 0.000, 0.000, 0.000, 22:07:29.269, 1560456449269
45, -414.34, -545.35, -308.28, -273.02, 0.000, 0.000, 0.000, 22:07:29.285, 1560456449285
46, -422.98, -604.98, -299.24, -273.06, 0.000, 0.000, 0.000, 22:07:29.285, 1560456449285
47, -413.26, -633.67, -301.43, -276.04, 0.000, 0.000, 0.000, 22:07:29.285, 1560456449285
48, -414.00, -582.86, -302.80, -286.25, 0.000, 0.000, 0.000, 22:07:29.285, 1560456449285
49, -411.15, -541.60, -305.73, -273.61, 0.000, 0.000, 0.000, 22:07:29.299, 1560456449299
50, -414.70, -597.47, -306.24, -263.07, 0.000, 0.000, 0.000, 22:07:29.299, 1560456449299
51, -420.59, -627.67, -306.49, -272.86, 0.000, 0.000, 0.000, 22:07:29.315, 1560456449315
52, -404.69, -582.04, -294.71, -279.18, 0.000, 0.000, 0.000, 22:07:29.315, 1560456449315
53, -415.78, -547.90, -298.40, -274.63, 0.000, 0.000, 0.000, 22:07:29.315, 1560456449315
54, -432.89, -618.61, -313.38, -282.50, 0.000, 0.000, 0.000, 22:07:29.315, 1560456449315
55, -423.16, -642.55, -304.67, -275.03, 0.000, 0.000, 0.000, 22:07:29.329, 1560456449329
56, -427.08, -601.80, -311.27, -290.15, 0.000, 0.000, 0.000, 22:07:29.329, 1560456449329
57, -428.11, -552.72, -303.96, -278.43, 0.000, 0.000, 0.000, 22:07:29.345, 1560456449345
58, -424.69, -603.37, -309.24, -271.89, 0.000, 0.000, 0.000, 22:07:29.345, 1560456449345
59, -440.57, -645.51, -290.37, -269.70, 0.000, 0.000, 0.000, 22:07:29.345, 1560456449345
60, -424.10, -599.13, -308.76, -285.41, 0.000, 0.000, 0.000, 22:07:29.345, 1560456449345
61, -411.19, -544.35, -293.10, -274.85, 0.000, 0.000, 0.000, 22:07:29.359, 1560456449359
62, -426.68, -599.30, -300.55, -263.78, 0.000, 0.000, 0.000, 22:07:29.359, 1560456449359
63, -426.06, -642.23, -308.96, -283.50, 0.000, 0.000, 0.000, 22:07:29.375, 1560456449375
64, -428.86, -596.00, -310.12, -292.98, 0.000, 0.000, 0.000, 22:07:29.375, 1560456449375
65, -418.75, -551.18, -315.88, -275.20, 0.000, 0.000, 0.000, 22:07:29.375, 1560456449375
66, -425.54, -607.32, -319.82, -269.07, 0.000, 0.000, 0.000, 22:07:29.375, 1560456449375
67, -442.65, -646.36, -315.14, -274.06, 0.000, 0.000, 0.000, 22:07:29.389, 1560456449389
68, -424.99, -608.20, -322.72, -290.74, 0.000, 0.000, 0.000, 22:07:29.389, 1560456449389
69, -432.32, -564.45, -322.49, -283.06, 0.000, 0.000, 0.000, 22:07:29.404, 1560456449404
70, -425.83, -612.64, -303.35, -275.79, 0.000, 0.000, 0.000, 22:07:29.404, 1560456449404
71, -430.80, -649.16, -295.26, -274.31, 0.000, 0.000, 0.000, 22:07:29.405, 1560456449405
72, -416.55, -594.90, -294.31, -282.29, 0.000, 0.000, 0.000, 22:07:29.405, 1560456449405
73, -411.02, -553.39, -316.98, -279.16, 0.000, 0.000, 0.000, 22:07:29.419, 1560456449419
74, -417.08, -609.23, -300.82, -265.55, 0.000, 0.000, 0.000, 22:07:29.419, 1560456449419
75, -410.36, -624.37, -294.13, -266.43, 0.000, 0.000, 0.000, 22:07:29.434, 1560456449434
76, -401.73, -581.05, -291.62, -275.67, 0.000, 0.000, 0.000, 22:07:29.434, 1560456449434
77, -406.64, -539.52, -305.88, -263.43, 0.000, 0.000, 0.000, 22:07:29.435, 1560456449435
78, -418.41, -600.30, -283.30, -258.92, 0.000, 0.000, 0.000, 22:07:29.435, 1560456449435
79, -417.65, -638.67, -276.80, -273.67, 0.000, 0.000, 0.000, 22:07:29.465, 1560456449465
80, -409.54, -593.65, -302.72, -279.90, 0.000, 0.000, 0.000, 22:07:29.465, 1560456449465
81, -413.04, -549.45, -298.17, -270.54, 0.000, 0.000, 0.000, 22:07:29.466, 1560456449466
82, -412.49, -598.74, -294.38, -263.08, 0.000, 0.000, 0.000, 22:07:29.466, 1560456449466
83, -420.58, -637.93, -284.95, -267.33, 0.000, 0.000, 0.000, 22:07:29.467, 1560456449467
84, -434.31, -603.49, -306.37, -291.14, 0.000, 0.000, 0.000, 22:07:29.467, 1560456449467
85, -432.64, -567.20, -277.85, -285.25, 0.000, 0.000, 0.000, 22:07:29.479, 1560456449479
86, -435.12, -627.22, -317.13, -270.01, 0.000, 0.000, 0.000, 22:07:29.479, 1560456449479
87, -426.43, -652.50, -304.07, -276.75, 0.000, 0.000, 0.000, 22:07:29.495, 1560456449495
88, -415.95, -596.82, -302.64, -278.08, 0.000, 0.000, 0.000, 22:07:29.495, 1560456449495
89, -406.93, -542.12, -309.80, -270.68, 0.000, 0.000, 0.000, 22:07:29.496, 1560456449496
90, -403.84, -590.08, -276.27, -264.09, 0.000, 0.000, 0.000, 22:07:29.496, 1560456449496
91, -411.11, -622.94, -306.17, -269.83, 0.000, 0.000, 0.000, 22:07:29.509, 1560456449509
92, -411.72, -583.28, -306.60, -269.98, 0.000, 0.000, 0.000, 22:07:29.509, 1560456449509
93, -420.96, -539.42, -316.79, -276.54, 0.000, 0.000, 0.000, 22:07:29.525, 1560456449525
94, -424.86, -595.18, -285.20, -269.15, 0.000, 0.000, 0.000, 22:07:29.525, 1560456449525
95, -422.72, -626.60, -290.97, -266.78, 0.000, 0.000, 0.000, 22:07:29.525, 1560456449525
96, -423.37, -589.79, -304.89, -294.38, 0.000, 0.000, 0.000, 22:07:29.525, 1560456449525
97, -423.48, -545.88, -302.48, -273.24, 0.000, 0.000, 0.000, 22:07:29.539, 1560456449539
98, -417.86, -602.74, -287.50, -258.86, 0.000, 0.000, 0.000, 22:07:29.539, 1560456449539
99, -438.73, -656.12, -292.83, -270.18, 0.000, 0.000, 0.000, 22:07:29.555, 1560456449555
100, -438.42, -615.74, -308.28, -302.08, 0.000, 0.000, 0.000, 22:07:29.555, 1560456449555
101, -437.33, -571.03, -300.09, -284.32, 0.000, 0.000, 0.000, 22:07:29.555, 1560456449555
102, -448.90, -639.33, -306.25, -280.49, 0.000, 0.000, 0.000, 22:07:29.555, 1560456449555
103, -453.14, -676.10, -309.95, -288.08, 0.000, 0.000, 0.000, 22:07:29.585, 1560456449585
104, -448.63, -628.59, -308.04, -296.60, 0.000, 0.000, 0.000, 22:07:29.585, 1560456449585
105, -455.84, -584.70, -314.33, -290.79, 0.000, 0.000, 0.000, 22:07:29.586, 1560456449586
106, -459.47, -645.46, -304.58, -281.75, 0.000, 0.000, 0.000, 22:07:29.586, 1560456449586
107, -472.64, -692.57, -314.42, -289.48, 0.000, 0.000, 0.000, 22:07:29.587, 1560456449587
108, -483.14, -652.19, -310.71, -312.56, 0.000, 0.000, 0.000, 22:07:29.587, 1560456449587
109, -476.75, -600.74, -317.59, -303.35, 0.000, 0.000, 0.000, 22:07:29.599, 1560456449599
110, -502.07, -668.83, -323.73, -283.98, 0.000, 0.000, 0.000, 22:07:29.599, 1560456449599
111, -503.99, -709.55, -319.06, -306.72, 0.000, 0.000, 0.000, 22:07:29.614, 1560456449614
112, -515.51, -665.62, -322.14, -318.75, 0.000, 0.000, 0.000, 22:07:29.614, 1560456449614
113, -502.56, -627.00, -333.59, -311.92, 0.000, 0.000, 0.000, 22:07:29.615, 1560456449615
114, -521.02, -685.83, -312.74, -310.81, 0.000, 0.000, 0.000, 22:07:29.615, 1560456449615
115, -515.23, -717.48, -301.77, -307.66, 0.000, 0.000, 0.000, 22:07:29.629, 1560456449629
116, -501.54, -674.15, -310.02, -314.74, 0.000, 0.000, 0.000, 22:07:29.629, 1560456449629
117, -499.67, -625.28, -289.45, -306.56, 0.000, 0.000, 0.000, 22:07:29.645, 1560456449645
118, -520.70, -675.56, -321.04, -305.04, 0.000, 0.000, 0.000, 22:07:29.645, 1560456449645
119, -525.21, -720.98, -329.13, -311.93, 0.000, 0.000, 0.000, 22:07:29.645, 1560456449645
120, -507.15, -670.92, -319.36, -329.34, 0.000, 0.000, 0.000, 22:07:29.645, 1560456449645
121, -506.05, -631.06, -342.44, -320.65, 0.000, 0.000, 0.000, 22:07:29.659, 1560456449659
122, -514.80, -691.89, -328.43, -306.27, 0.000, 0.000, 0.000, 22:07:29.659, 1560456449659
123, -514.62, -725.38, -308.91, -303.92, 0.000, 0.000, 0.000, 22:07:29.675, 1560456449675
124, -521.54, -680.90, -315.40, -329.64, 0.000, 0.000, 0.000, 22:07:29.675, 1560456449675
125, -519.82, -635.76, -338.94, -312.89, 0.000, 0.000, 0.000, 22:07:29.675, 1560456449675
126, -532.92, -694.45, -326.18, -310.95, 0.000, 0.000, 0.000, 22:07:29.675, 1560456449675
127, -528.38, -722.35, -309.18, -311.34, 0.000, 0.000, 0.000, 22:07:29.705, 1560456449705
128, -524.90, -688.15, -314.33, -317.78, 0.000, 0.000, 0.000, 22:07:29.705, 1560456449705
129, -516.78, -631.91, -333.00, -318.46, 0.000, 0.000, 0.000, 22:07:29.706, 1560456449706
130, -531.42, -698.67, -325.64, -317.08, 0.000, 0.000, 0.000, 22:07:29.706, 1560456449706
131, -542.97, -725.66, -321.30, -319.83, 0.000, 0.000, 0.000, 22:07:29.707, 1560456449707
132, -520.75, -680.08, -304.72, -327.99, 0.000, 0.000, 0.000, 22:07:29.707, 1560456449707
133, -528.73, -634.98, -303.26, -317.10, 0.000, 0.000, 0.000, 22:07:29.719, 1560456449719
134, -529.50, -684.62, -308.02, -298.04, 0.000, 0.000, 0.000, 22:07:29.719, 1560456449719
135, -544.97, -730.66, -316.23, -317.18, 0.000, 0.000, 0.000, 22:07:29.735, 1560456449735
136, -530.20, -684.49, -316.46, -328.24, 0.000, 0.000, 0.000, 22:07:29.735, 1560456449735
137, -498.53, -624.73, -299.32, -297.29, 0.000, 0.000, 0.000, 22:07:29.735, 1560456449735
138, -525.61, -692.29, -299.44, -300.58, 0.000, 0.000, 0.000, 22:07:29.735, 1560456449735
139, -528.87, -723.72, -303.70, -309.62, 0.000, 0.000, 0.000, 22:07:29.749, 1560456449749
140, -524.60, -686.49, -316.80, -328.34, 0.000, 0.000, 0.000, 22:07:29.749, 1560456449749
141, -509.55, -634.94, -322.28, -317.33, 0.000, 0.000, 0.000, 22:07:29.764, 1560456449764
142, -522.53, -684.21, -296.28, -307.09, 0.000, 0.000, 0.000, 22:07:29.764, 1560456449764
143, -498.70, -705.08, -297.54, -295.74, 0.000, 0.000, 0.000, 22:07:29.765, 1560456449765
144, -506.02, -670.04, -311.23, -325.80, 0.000, 0.000, 0.000, 22:07:29.765, 1560456449765
145, -496.09, -620.89, -307.62, -309.78, 0.000, 0.000, 0.000, 22:07:29.779, 1560456449779
146, -506.91, -672.12, -311.17, -296.26, 0.000, 0.000, 0.000, 22:07:29.779, 1560456449779
147, -500.00, -707.79, -296.77, -296.78, 0.000, 0.000, 0.000, 22:07:29.794, 1560456449794
148, -501.97, -653.97, -314.01, -312.54, 0.000, 0.000, 0.000, 22:07:29.794, 1560456449794
149, -500.04, -615.15, -300.43, -305.81, 0.000, 0.000, 0.000, 22:07:29.795, 1560456449795
150, -504.57, -664.88, -309.05, -302.44, 0.000, 0.000, 0.000, 22:07:29.795, 1560456449795
151, -497.69, -698.74, -305.48, -299.84, 0.000, 0.000, 0.000, 22:07:29.809, 1560456449809
152, -484.89, -651.38, -301.29, -303.57, 0.000, 0.000, 0.000, 22:07:29.809, 1560456449809
153, -484.47, -607.55, -312.03, -303.94, 0.000, 0.000, 0.000, 22:07:29.825, 1560456449825
154, -485.98, -652.83, -311.86, -295.93, 0.000, 0.000, 0.000, 22:07:29.825, 1560456449825
155, -495.36, -693.92, -286.76, -286.46, 0.000, 0.000, 0.000, 22:07:29.825, 1560456449825
156, -493.78, -653.79, -313.38, -315.67, 0.000, 0.000, 0.000, 22:07:29.825, 1560456449825
157, -485.04, -609.10, -318.70, -308.29, 0.000, 0.000, 0.000, 22:07:29.839, 1560456449839
158, -494.86, -661.46, -322.82, -296.82, 0.000, 0.000, 0.000, 22:07:29.839, 1560456449839
159, -486.47, -691.78, -300.80, -286.17, 0.000, 0.000, 0.000, 22:07:29.870, 1560456449870
160, -488.11, -648.37, -305.05, -313.03, 0.000, 0.000, 0.000, 22:07:29.870, 1560456449870
161, -487.01, -608.18, -305.72, -299.77, 0.000, 0.000, 0.000, 22:07:29.871, 1560456449871
162, -501.14, -662.65, -289.92, -292.42, 0.000, 0.000, 0.000, 22:07:29.871, 1560456449871
163, -492.47, -689.43, -282.46, -291.01, 0.000, 0.000, 0.000, 22:07:29.872, 1560456449872
164, -478.75, -645.40, -289.93, -301.64, 0.000, 0.000, 0.000, 22:07:29.872, 1560456449872
165, -468.27, -595.74, -301.26, -288.93, 0.000, 0.000, 0.000, 22:07:29.885, 1560456449885
166, -477.24, -647.64, -290.80, -293.10, 0.000, 0.000, 0.000, 22:07:29.885, 1560456449885
167, -495.11, -693.68, -309.73, -303.42, 0.000, 0.000, 0.000, 22:07:29.885, 1560456449885
168, -485.48, -647.52, -314.22, -307.60, 0.000, 0.000, 0.000, 22:07:29.885, 1560456449885
169, -464.29, -589.07, -306.25, -290.36, 0.000, 0.000, 0.000, 22:07:29.899, 1560456449899
170, -474.58, -645.51, -307.34, -281.63, 0.000, 0.000, 0.000, 22:07:29.899, 1560456449899
171, -454.77, -664.52, -296.20, -286.70, 0.000, 0.000, 0.000, 22:07:29.915, 1560456449915
172, -450.29, -629.97, -299.61, -298.93, 0.000, 0.000, 0.000, 22:07:29.915, 1560456449915
173, -443.80, -573.18, -286.09, -266.42, 0.000, 0.000, 0.000, 22:07:29.915, 1560456449915
174, -449.76, -623.46, -278.07, -273.83, 0.000, 0.000, 0.000, 22:07:29.915, 1560456449915
175, -466.06, -672.50, -286.11, -298.17, 0.000, 0.000, 0.000, 22:07:29.929, 1560456449929
176, -457.01, -626.95, -305.91, -301.79, 0.000, 0.000, 0.000, 22:07:29.929, 1560456449929
177, -443.20, -573.96, -294.60, -282.40, 0.000, 0.000, 0.000, 22:07:29.944, 1560456449944
178, -454.17, -635.56, -312.16, -276.06, 0.000, 0.000, 0.000, 22:07:29.944, 1560456449944
179, -449.06, -660.30, -282.43, -273.22, 0.000, 0.000, 0.000, 22:07:29.945, 1560456449945
180, -452.69, -624.94, -296.64, -292.34, 0.000, 0.000, 0.000, 22:07:29.945, 1560456449945
181, -440.24, -575.30, -291.75, -286.80, 0.000, 0.000, 0.000, 22:07:29.959, 1560456449959
182, -461.90, -628.38, -279.06, -269.01, 0.000, 0.000, 0.000, 22:07:29.959, 1560456449959
183, -457.06, -662.38, -314.08, -281.14, 0.000, 0.000, 0.000, 22:07:29.975, 1560456449975
184, -444.26, -621.83, -294.13, -294.27, 0.000, 0.000, 0.000, 22:07:29.975, 1560456449975
185, -447.48, -567.70, -305.55, -287.66, 0.000, 0.000, 0.000, 22:07:29.975, 1560456449975
186, -454.52, -625.69, -295.19, -274.81, 0.000, 0.000, 0.000, 22:07:29.975, 1560456449975
187, -451.30, -659.53, -309.93, -278.34, 0.000, 0.000, 0.000, 22:07:29.989, 1560456449989
188, -450.59, -625.56, -278.94, -297.50, 0.000, 0.000, 0.000, 22:07:29.989, 1560456449989
189, -449.59, -573.89, -321.00, -278.80, 0.000, 0.000, 0.000, 22:07:30.005, 1560456450005
190, -456.33, -618.54, -296.65, -282.56, 0.000, 0.000, 0.000, 22:07:30.005, 1560456450005
191, -459.99, -661.23, -301.24, -279.71, 0.000, 0.000, 0.000, 22:07:30.005, 1560456450005
192, -445.28, -616.03, -301.81, -295.25, 0.000, 0.000, 0.000, 22:07:30.005, 1560456450005
193, -447.32, -571.37, -299.06, -287.44, 0.000, 0.000, 0.000, 22:07:30.019, 1560456450019
194, -451.35, -619.28, -293.92, -282.07, 0.000, 0.000, 0.000, 22:07:30.019, 1560456450019
195, -445.88, -660.58, -291.87, -278.66, 0.000, 0.000, 0.000, 22:07:30.035, 1560456450035
196, -442.24, -618.61, -285.71, -286.78, 0.000, 0.000, 0.000, 22:07:30.035, 1560456450035
197, -456.39, -579.20, -317.03, -281.05, 0.000, 0.000, 0.000, 22:07:30.036, 1560456450036
198, -459.61, -634.50, -288.61, -278.67, 0.000, 0.000, 0.000, 22:07:30.036, 1560456450036
199, -449.27, -665.68, -280.87, -272.77, 0.000, 0.000, 0.000, 22:07:30.050, 1560456450050
200, -437.96, -624.86, -288.10, -289.96, 0.000, 0.000, 0.000, 22:07:30.050, 1560456450050
0, -443.43, -572.93, -300.19, -283.32, 0.000, 0.000, 0.000, 22:07:30.050, 1560456450050
1, -456.38, -625.03, -306.60, -273.89, 0.000, 0.000, 0.000, 22:07:30.064, 1560456450064
2, -457.43, -666.61, -298.96, -280.58, 0.000, 0.000, 0.000, 22:07:30.064, 1560456450064
3, -444.89, -616.63, -321.78, -295.50, 0.000, 0.000, 0.000, 22:07:30.080, 1560456450080
4, -441.43, -569.81, -313.50, -290.09, 0.000, 0.000, 0.000, 22:07:30.080, 1560456450080
5, -450.24, -619.63, -310.12, -268.01, 0.000, 0.000, 0.000, 22:07:30.095, 1560456450095
6, -447.92, -661.19, -313.44, -283.82, 0.000, 0.000, 0.000, 22:07:30.095, 1560456450095
7, -433.34, -620.24, -297.94, -296.12, 0.000, 0.000, 0.000, 22:07:30.095, 1560456450095
8, -446.07, -570.99, -322.15, -282.65, 0.000, 0.000, 0.000, 22:07:30.095, 1560456450095
9, -457.90, -631.78, -310.93, -284.13, 0.000, 0.000, 0.000, 22:07:30.109, 1560456450109
10, -454.06, -676.16, -276.29, -275.89, 0.000, 0.000, 0.000, 22:07:30.109, 1560456450109
11, -451.34, -626.91, -291.38, -291.75, 0.000, 0.000, 0.000, 22:07:30.111, 1560456450111
12, -434.45, -561.86, -309.63, -278.07, 0.000, 0.000, 0.000, 22:07:30.111, 1560456450111
13, -444.85, -616.48, -306.66, -270.65, 0.000, 0.000, 0.000, 22:07:30.124, 1560456450124
14, -455.21, -665.92, -306.93, -278.11, 0.000, 0.000, 0.000, 22:07:30.124, 1560456450124
15, -454.79, -630.20, -312.34, -297.59, 0.000, 0.000, 0.000, 22:07:30.140, 1560456450140
16, -443.00, -567.49, -300.47, -283.76, 0.000, 0.000, 0.000, 22:07:30.140, 1560456450140
17, -441.27, -626.85, -304.21, -272.70, 0.000, 0.000, 0.000, 22:07:30.140, 1560456450140
18, -446.62, -664.28, -305.64, -289.08, 0.000, 0.000, 0.000, 22:07:30.140, 1560456450140
19, -449.69, -625.26, -298.53, -298.73, 0.000, 0.000, 0.000, 22:07:30.154, 1560456450154
20, -444.63, -576.10, -334.40, -292.79, 0.000, 0.000, 0.000, 22:07:30.154, 1560456450154
21, -451.01, -620.03, -313.63, -272.46, 0.000, 0.000, 0.000, 22:07:30.170, 1560456450170
22, -444.93, -654.30, -298.36, -273.35, 0.000, 0.000, 0.000, 22:07:30.170, 1560456450170
23, -443.56, -619.90, -303.09, -288.54, 0.000, 0.000, 0.000, 22:07:30.170, 1560456450170
24, -438.68, -569.80, -325.81, -290.84, 0.000, 0.000, 0.000, 22:07:30.170, 1560456450170
25, -437.99, -614.40, -316.91, -276.24, 0.000, 0.000, 0.000, 22:07:30.184, 1560456450184
26, -444.66, -654.13, -297.30, -279.13, 0.000, 0.000, 0.000, 22:07:30.184, 1560456450184
27, -422.15, -597.26, -299.67, -282.44, 0.000, 0.000, 0.000, 22:07:30.200, 1560456450200
28, -430.43, -550.35, -320.45, -285.41, 0.000, 0.000, 0.000, 22:07:30.200, 1560456450200
29, -443.23, -609.59, -325.61, -280.53, 0.000, 0.000, 0.000, 22:07:30.202, 1560456450202
30, -432.14, -640.26, -322.98, -275.53, 0.000, 0.000, 0.000, 22:07:30.202, 1560456450202
31, -418.38, -595.40, -299.73, -282.63, 0.000, 0.000, 0.000, 22:07:30.214, 1560456450214
32, -417.59, -541.30, -308.73, -275.57, 0.000, 0.000, 0.000, 22:07:30.214, 1560456450214
33, -420.35, -597.62, -314.71, -270.25, 0.000, 0.000, 0.000, 22:07:30.230, 1560456450230
34, -423.56, -636.08, -299.28, -272.44, 0.000, 0.000, 0.000, 22:07:30.230, 1560456450230
35, -417.77, -596.73, -296.10, -275.53, 0.000, 0.000, 0.000, 22:07:30.230, 1560456450230
36, -415.54, -540.03, -318.89, -274.84, 0.000, 0.000, 0.000, 22:07:30.230, 1560456450230
37, -427.47, -597.36, -307.34, -271.02, 0.000, 0.000, 0.000, 22:07:30.260, 1560456450260
38, -405.40, -638.95, -288.36, -267.69, 0.000, 0.000, 0.000, 22:07:30.260, 1560456450260
39, -407.92, -597.24, -290.96, -280.66, 0.000, 0.000, 0.000, 22:07:30.261, 1560456450261
40, -417.18, -553.91, -317.99, -277.46, 0.000, 0.000, 0.000, 22:07:30.261, 1560456450261
41, -434.16, -621.63, -315.71, -271.37, 0.000, 0.000, 0.000, 22:07:30.262, 1560456450262
42, -420.44, -643.98, -290.10, -268.85, 0.000, 0.000, 0.000, 22:07:30.262, 1560456450262
43, -410.45, -597.97, -308.15, -282.68, 0.000, 0.000, 0.000, 22:07:30.274, 1560456450274
44, -421.93, -555.11, -322.01, -275.62, 0.000, 0.000, 0.000, 22:07:30.274, 1560456450274
45, -435.67, -618.37, -318.14, -274.59, 0.000, 0.000, 0.000, 22:07:30.290, 1560456450290
46, -423.05, -643.86, -294.43, -265.68, 0.000, 0.000, 0.000, 22:07:30.290, 1560456450290
47, -410.36, -599.73, -312.53, -279.81, 0.000, 0.000, 0.000, 22:07:30.291, 1560456450291
48, -424.29, -552.03, -312.20, -283.61, 0.000, 0.000, 0.000, 22:07:30.291, 1560456450291
49, -436.84, -612.89, -301.85, -272.74, 0.000, 0.000, 0.000, 22:07:30.304, 1560456450304
50, -437.77, -656.83, -290.97, -277.69, 0.000, 0.000, 0.000, 22:07:30.304, 1560456450304
51, -430.24, -611.28, -288.47, -287.80, 0.000, 0.000, 0.000, 22:07:30.319, 1560456450319
52, -424.33, -547.78, -311.03, -276.95, 0.000, 0.000, 0.000, 22:07:30.319, 1560456450319
53, -443.65, -617.12, -298.23, -278.55, 0.000, 0.000, 0.000, 22:07:30.320, 1560456450320
54, -427.40, -650.69, -313.45, -284.23, 0.000, 0.000, 0.000, 22:07:30.320, 1560456450320
55, -429.72, -609.82, -319.24, -293.43, 0.000, 0.000, 0.000, 22:07:30.334, 1560456450334
56, -422.03, -553.58, -313.56, -272.34, 0.000, 0.000, 0.000, 22:07:30.334, 1560456450334
57, -415.35, -599.03, -304.30, -265.52, 0.000, 0.000, 0.000, 22:07:30.350, 1560456450350
58, -420.38, -643.82, -293.16, -271.34, 0.000, 0.000, 0.000, 22:07:30.350, 1560456450350
59, -419.10, -603.69, -291.87, -281.67, 0.000, 0.000, 0.000, 22:07:30.350, 1560456450350
60, -425.85, -555.12, -303.39, -278.67, 0.000, 0.000, 0.000, 22:07:30.350, 1560456450350
61, -421.77, -610.79, -291.56, -267.05, 0.000, 0.000, 0.000, 22:07:30.364, 1560456450364
62, -425.75, -648.06, -304.79, -275.43, 0.000, 0.000, 0.000, 22:07:30.364, 1560456450364
63, -416.62, -595.68, -281.44, -274.12, 0.000, 0.000, 0.000, 22:07:30.380, 1560456450380
64, -420.47, -549.03, -320.23, -266.73, 0.000, 0.000, 0.000, 22:07:30.380, 1560456450380
65, -417.81, -601.93, -312.52, -261.73, 0.000, 0.000, 0.000, 22:07:30.380, 1560456450380
66, -427.16, -642.78, -307.12, -268.48, 0.000, 0.000, 0.000, 22:07:30.380, 1560456450380
67, -429.27, -608.90, -321.27, -296.63, 0.000, 0.000, 0.000, 22:07:30.427, 1560456450427
68, -434.50, -564.98, -307.40, -284.22, 0.000, 0.000, 0.000, 22:07:30.427, 1560456450427
69, -440.03, -626.14, -299.06, -274.74, 0.000, 0.000, 0.000, 22:07:30.427, 1560456450427
70, -438.73, -663.59, -298.36, -278.21, 0.000, 0.000, 0.000, 22:07:30.427, 1560456450427
71, -423.98, -610.92, -300.61, -282.11, 0.000, 0.000, 0.000, 22:07:30.428, 1560456450428
72, -420.06, -563.08, -310.07, -268.15, 0.000, 0.000, 0.000, 22:07:30.428, 1560456450428
73, -437.57, -622.78, -308.36, -275.16, 0.000, 0.000, 0.000, 22:07:30.429, 1560456450429
74, -436.94, -664.37, -299.93, -276.53, 0.000, 0.000, 0.000, 22:07:30.429, 1560456450429
75, -421.34, -615.17, -305.85, -280.24, 0.000, 0.000, 0.000, 22:07:30.440, 1560456450440
76, -424.40, -562.71, -312.92, -277.63, 0.000, 0.000, 0.000, 22:07:30.440, 1560456450440
77, -420.73, -614.43, -299.43, -270.75, 0.000, 0.000, 0.000, 22:07:30.440, 1560456450440
78, -428.49, -658.95, -301.37, -266.56, 0.000, 0.000, 0.000, 22:07:30.440, 1560456450440
79, -431.06, -621.82, -303.58, -287.44, 0.000, 0.000, 0.000, 22:07:30.454, 1560456450454
80, -421.53, -564.27, -321.33, -271.91, 0.000, 0.000, 0.000, 22:07:30.454, 1560456450454
81, -436.06, -629.25, -323.30, -278.83, 0.000, 0.000, 0.000, 22:07:30.485, 1560456450485
82, -429.78, -668.74, -316.77, -278.95, 0.000, 0.000, 0.000, 22:07:30.485, 1560456450485
83, -429.77, -617.78, -295.86, -286.69, 0.000, 0.000, 0.000, 22:07:30.486, 1560456450486
84, -431.87, -568.53, -326.93, -283.48, 0.000, 0.000, 0.000, 22:07:30.486, 1560456450486
85, -437.79, -626.64, -296.79, -281.83, 0.000, 0.000, 0.000, 22:07:30.487, 1560456450487
86, -434.28, -656.85, -300.28, -272.72, 0.000, 0.000, 0.000, 22:07:30.487, 1560456450487
87, -422.95, -614.28, -320.47, -290.59, 0.000, 0.000, 0.000, 22:07:30.499, 1560456450499
88, -420.19, -562.04, -335.35, -288.62, 0.000, 0.000, 0.000, 22:07:30.499, 1560456450499
89, -424.79, -617.73, -305.51, -273.20, 0.000, 0.000, 0.000, 22:07:30.500, 1560456450500
90, -416.14, -650.26, -305.66, -273.09, 0.000, 0.000, 0.000, 22:07:30.500, 1560456450500
91, -415.38, -603.12, -315.31, -279.23, 0.000, 0.000, 0.000, 22:07:30.514, 1560456450514
92, -412.09, -546.99, -322.06, -277.06, 0.000, 0.000, 0.000, 22:07:30.514, 1560456450514
93, -417.46, -600.78, -303.83, -267.39, 0.000, 0.000, 0.000, 22:07:30.530, 1560456450530
94, -420.88, -643.06, -289.92, -273.07, 0.000, 0.000, 0.000, 22:07:30.530, 1560456450530
95, -428.63, -614.56, -316.80, -287.58, 0.000, 0.000, 0.000, 22:07:30.530, 1560456450530
96, -412.83, -543.16, -318.57, -266.97, 0.000, 0.000, 0.000, 22:07:30.530, 1560456450530
97, -424.51, -606.99, -308.93, -272.90, 0.000, 0.000, 0.000, 22:07:30.544, 1560456450544
98, -425.23, -651.95, -309.47, -272.89, 0.000, 0.000, 0.000, 22:07:30.544, 1560456450544
99, -430.80, -612.95, -320.44, -288.09, 0.000, 0.000, 0.000, 22:07:30.559, 1560456450559
100, -413.32, -546.17, -313.58, -274.44, 0.000, 0.000, 0.000, 22:07:30.559, 1560456450559
101, -422.73, -607.27, -301.49, -264.96, 0.000, 0.000, 0.000, 22:07:30.574, 1560456450574
102, -437.24, -654.97, -301.26, -274.46, 0.000, 0.000, 0.000, 22:07:30.574, 1560456450574
103, -417.59, -615.38, -315.80, -289.29, 0.000, 0.000, 0.000, 22:07:30.575, 1560456450575
104, -408.20, -549.50, -319.64, -276.48, 0.000, 0.000, 0.000, 22:07:30.575, 1560456450575
105, -417.18, -598.31, -321.89, -273.70, 0.000, 0.000, 0.000, 22:07:30.590, 1560456450590
106, -420.95, -650.05, -298.46, -271.37, 0.000, 0.000, 0.000, 22:07:30.590, 1560456450590
107, -427.92, -615.82, -303.16, -292.68, 0.000, 0.000, 0.000, 22:07:30.590, 1560456450590
108, -405.90, -536.16, -316.65, -264.25, 0.000, 0.000, 0.000, 22:07:30.590, 1560456450590
109, -421.01, -602.84, -329.81, -273.23, 0.000, 0.000, 0.000, 22:07:30.604, 1560456450604
110, -416.16, -643.11, -306.58, -275.28, 0.000, 0.000, 0.000, 22:07:30.604, 1560456450604
111, -399.65, -591.29, -308.90, -278.82, 0.000, 0.000, 0.000, 22:07:30.651, 1560456450651
112, -403.54, -536.71, -305.83, -266.02, 0.000, 0.000, 0.000, 22:07:30.651, 1560456450651
113, -416.39, -593.45, -307.91, -253.77, 0.000, 0.000, 0.000, 22:07:30.652, 1560456450652
114, -405.16, -633.95, -300.42, -265.36, 0.000, 0.000, 0.000, 22:07:30.652, 1560456450652
115, -407.09, -591.53, -290.90, -275.11, 0.000, 0.000, 0.000, 22:07:30.653, 1560456450653
116, -397.59, -537.64, -291.79, -268.49, 0.000, 0.000, 0.000, 22:07:30.653, 1560456450653
117, -410.36, -591.77, -311.67, -254.76, 0.000, 0.000, 0.000, 22:07:30.654, 1560456450654
118, -420.30, -639.67, -301.11, -263.93, 0.000, 0.000, 0.000, 22:07:30.654, 1560456450654
119, -403.13, -597.29, -293.97, -276.99, 0.000, 0.000, 0.000, 22:07:30.665, 1560456450665
120, -412.52, -541.28, -314.08, -270.24, 0.000, 0.000, 0.000, 22:07:30.665, 1560456450665
121, -408.77, -603.86, -320.44, -271.42, 0.000, 0.000, 0.000, 22:07:30.665, 1560456450665
122, -403.87, -639.01, -299.75, -269.38, 0.000, 0.000, 0.000, 22:07:30.665, 1560456450665
123, -411.92, -600.91, -306.12, -278.76, 0.000, 0.000, 0.000, 22:07:30.679, 1560456450679
124, -386.24, -532.01, -315.23, -260.81, 0.000, 0.000, 0.000, 22:07:30.679, 1560456450679
125, -383.09, -575.92, -309.06, -252.96, 0.000, 0.000, 0.000, 22:07:30.680, 1560456450680
126, -399.51, -629.17, -293.75, -277.38, 0.000, 0.000, 0.000, 22:07:30.680, 1560456450680
127, -377.69, -580.53, -305.14, -276.88, 0.000, 0.000, 0.000, 22:07:30.694, 1560456450694
128, -356.57, -511.26, -303.59, -250.95, 0.000, 0.000, 0.000, 22:07:30.694, 1560456450694
129, -348.75, -558.82, -283.90, -244.53, 0.000, 0.000, 0.000, 22:07:30.710, 1560456450710
130, -360.51, -597.06, -281.16, -250.03, 0.000, 0.000, 0.000, 22:07:30.710, 1560456450710
131, -363.06, -563.26, -292.14, -262.38, 0.000, 0.000, 0.000, 22:07:30.710, 1560456450710
132, -367.22, -517.82, -306.66, -254.67, 0.000, 0.000, 0.000, 22:07:30.710, 1560456450710
133, -385.28, -571.73, -271.67, -245.34, 0.000, 0.000, 0.000, 22:07:30.724, 1560456450724
134, -381.24, -614.63, -289.12, -261.21, 0.000, 0.000, 0.000, 22:07:30.724, 1560456450724
135, -374.62, -568.71, -269.18, -256.97, 0.000, 0.000, 0.000, 22:07:30.740, 1560456450740
136, -374.75, -513.48, -309.69, -248.38, 0.000, 0.000, 0.000, 22:07:30.740, 1560456450740
137, -385.64, -578.65, -300.92, -244.51, 0.000, 0.000, 0.000, 22:07:30.741, 1560456450741
138, -389.10, -626.21, -280.89, -258.96, 0.000, 0.000, 0.000, 22:07:30.741, 1560456450741
