%OpenBCI Raw EEG Data
%Number of channels = 4
%Sample Rate = 200.0 Hz
%First Column = SampleIndex
%Last Column = Timestamp 
%Other Columns = EEG data in microvolts followed by Accel Data (in G) interleaved with Aux Data
0, 1131.96, 475.69, 613.51, 869.59, 0.032, 0.000, -1.040, 12:42:18.206, 1587811338206
1, 1095.83, 439.54, 576.91, 839.13, 0.032, 0.000, -1.040, 12:42:18.219, 1587811338219
2, 1091.19, 422.39, 589.67, 847.38, 0.032, 0.000, -1.040, 12:42:18.219, 1587811338219
3, 1115.68, 449.90, 619.48, 884.37, 0.032, 0.000, -1.040, 12:42:18.234, 1587811338234
4, 1134.35, 477.96, 615.08, 869.03, 0.032, 0.000, -1.040, 12:42:18.234, 1587811338234
5, 1120.18, 452.72, 581.25, 851.63, 0.032, 0.000, -1.040, 12:42:18.235, 1587811338235
6, 1098.47, 421.69, 588.48, 850.68, 0.032, 0.000, -1.040, 12:42:18.235, 1587811338235
7, 1118.82, 458.89, 622.38, 893.64, 0.032, 0.000, -1.040, 12:42:18.249, 1587811338249
8, 1132.19, 472.23, 611.61, 869.85, 0.032, 0.000, -1.040, 12:42:18.249, 1587811338249
9, 1109.31, 438.59, 574.40, 848.28, 0.032, 0.000, -1.040, 12:42:18.264, 1587811338264
10, 1085.19, 405.43, 572.99, 844.85, 0.032, 0.000, -1.040, 12:42:18.264, 1587811338264
11, 1118.85, 450.85, 611.79, 893.85, 0.032, 0.000, -1.040, 12:42:18.265, 1587811338265
12, 1141.89, 476.07, 614.63, 883.23, 0.032, 0.000, -1.040, 12:42:18.265, 1587811338265
13, 1103.80, 439.95, 575.97, 839.50, 0.032, 0.000, -1.040, 12:42:18.279, 1587811338279
14, 1088.60, 419.38, 587.08, 857.52, 0.032, 0.000, -1.040, 12:42:18.279, 1587811338279
15, 1116.07, 452.29, 615.25, 892.45, 0.032, 0.000, -1.040, 12:42:18.294, 1587811338294
16, 1140.94, 485.09, 620.10, 888.00, 0.032, 0.000, -1.040, 12:42:18.294, 1587811338294
17, 1101.12, 440.44, 573.73, 846.35, 0.032, 0.000, -1.040, 12:42:18.295, 1587811338295
18, 1091.92, 420.62, 591.20, 848.20, 0.032, 0.000, -1.040, 12:42:18.295, 1587811338295
19, 1121.62, 453.41, 619.47, 892.52, 0.032, 0.000, -1.040, 12:42:18.309, 1587811338309
20, 1143.69, 481.13, 619.90, 887.18, 0.032, 0.000, -1.040, 12:42:18.309, 1587811338309
21, 1115.44, 435.49, 574.83, 844.14, 0.032, 0.000, -1.040, 12:42:18.324, 1587811338324
22, 1078.64, 401.09, 574.82, 839.40, 0.032, 0.000, -1.040, 12:42:18.324, 1587811338324
23, 1128.37, 456.64, 625.90, 894.80, 0.032, 0.000, -1.040, 12:42:18.325, 1587811338325
24, 1134.29, 463.16, 603.93, 871.73, 0.032, 0.000, -1.040, 12:42:18.325, 1587811338325
25, 1106.77, 426.14, 568.21, 830.38, 0.032, 0.000, -1.040, 12:42:18.339, 1587811338339
26, 1081.06, 401.48, 572.83, 847.26, 0.016, 0.000, -0.528, 12:42:18.339, 1587811338339
27, 1124.80, 446.26, 622.21, 891.37, 0.016, 0.000, -0.528, 12:42:18.355, 1587811338355
28, 1145.11, 477.30, 610.86, 890.25, 0.016, 0.000, -0.528, 12:42:18.355, 1587811338355
29, 1114.69, 438.40, 580.37, 857.96, 0.016, 0.000, -0.528, 12:42:18.356, 1587811338356
30, 1095.18, 412.58, 589.54, 858.48, 0.016, 0.000, -0.528, 12:42:18.356, 1587811338356
31, 1120.09, 440.43, 610.42, 883.35, 0.016, 0.000, -0.528, 12:42:18.369, 1587811338369
32, 1141.82, 468.39, 610.51, 879.73, 0.016, 0.000, -0.528, 12:42:18.369, 1587811338369
33, 1101.01, 426.31, 567.33, 845.73, 0.016, 0.000, -0.528, 12:42:18.385, 1587811338385
34, 1089.32, 406.81, 582.94, 854.92, 0.016, 0.000, -0.528, 12:42:18.385, 1587811338385
35, 1116.90, 434.15, 609.33, 881.75, 0.016, 0.000, -0.528, 12:42:18.386, 1587811338386
36, 1151.95, 481.41, 623.75, 892.57, 0.016, 0.000, -0.528, 12:42:18.386, 1587811338386
37, 1121.75, 436.44, 577.52, 845.21, 0.016, 0.000, -0.528, 12:42:18.399, 1587811338399
38, 1086.76, 402.79, 571.87, 849.48, 0.016, 0.000, -0.528, 12:42:18.399, 1587811338399
39, 1125.20, 435.86, 611.50, 884.11, 0.016, 0.000, -0.528, 12:42:18.415, 1587811338415
40, 1156.93, 477.97, 613.44, 887.29, 0.016, 0.000, -0.528, 12:42:18.415, 1587811338415
41, 1114.34, 427.58, 574.93, 839.17, 0.016, 0.000, -0.528, 12:42:18.416, 1587811338416
42, 1095.52, 403.33, 577.57, 850.63, 0.016, 0.000, -0.528, 12:42:18.416, 1587811338416
43, 1126.69, 442.76, 617.76, 881.67, 0.016, 0.000, -0.528, 12:42:18.429, 1587811338429
44, 1139.73, 459.45, 597.07, 868.18, 0.016, 0.000, -0.528, 12:42:18.429, 1587811338429
45, 1123.90, 435.20, 582.26, 853.24, 0.016, 0.000, -0.528, 12:42:18.444, 1587811338444
46, 1113.25, 412.40, 589.82, 853.56, 0.032, 0.000, -0.784, 12:42:18.444, 1587811338444
47, 1116.27, 435.47, 606.40, 877.60, 0.032, 0.000, -0.784, 12:42:18.445, 1587811338445
48, 1153.37, 464.20, 609.34, 875.35, 0.032, 0.000, -0.784, 12:42:18.445, 1587811338445
49, 1124.55, 427.42, 578.73, 837.70, 0.032, 0.000, -0.784, 12:42:18.459, 1587811338459
50, 1109.85, 409.27, 594.89, 854.03, 0.032, 0.000, -0.784, 12:42:18.459, 1587811338459
51, 1135.77, 442.82, 620.14, 883.21, 0.032, 0.000, -0.784, 12:42:18.474, 1587811338474
52, 1144.92, 453.80, 593.63, 866.48, 0.032, 0.000, -0.784, 12:42:18.475, 1587811338475
53, 1118.40, 415.34, 574.83, 835.79, 0.032, 0.000, -0.784, 12:42:18.475, 1587811338475
54, 1087.33, 404.80, 583.56, 817.99, 0.032, 0.000, -0.784, 12:42:18.475, 1587811338475
55, 1135.45, 472.24, 640.63, 855.28, 0.032, 0.000, -0.784, 12:42:18.489, 1587811338489
56, 1176.01, 511.28, 668.45, 856.21, 0.032, 0.000, -0.784, 12:42:18.489, 1587811338489
57, 1143.01, 488.47, 666.34, 818.54, 0.032, 0.000, -0.784, 12:42:18.504, 1587811338504
58, 1128.17, 493.73, 708.32, 814.93, 0.032, 0.000, -0.784, 12:42:18.504, 1587811338504
59, 1165.88, 564.99, 777.66, 848.48, 0.032, 0.000, -0.784, 12:42:18.505, 1587811338505
60, 1182.44, 600.33, 793.69, 833.93, 0.032, 0.000, -0.784, 12:42:18.505, 1587811338505
61, 1148.83, 573.95, 777.12, 808.67, 0.032, 0.000, -0.784, 12:42:18.518, 1587811338518
62, 1132.61, 558.17, 789.87, 813.77, 0.032, 0.000, -0.784, 12:42:18.518, 1587811338518
63, 1163.81, 605.39, 821.48, 842.35, 0.032, 0.000, -0.784, 12:42:18.534, 1587811338534
64, 1178.49, 624.32, 806.27, 838.61, 0.032, 0.000, -0.784, 12:42:18.534, 1587811338534
65, 1145.92, 575.86, 760.71, 798.35, 0.032, 0.000, -0.784, 12:42:18.535, 1587811338535
66, 1128.29, 547.99, 760.13, 809.79, 0.032, 0.000, -0.896, 12:42:18.535, 1587811338535
67, 1156.60, 582.08, 791.38, 838.17, 0.032, 0.000, -0.896, 12:42:18.549, 1587811338549
68, 1172.14, 599.18, 780.06, 824.87, 0.032, 0.000, -0.896, 12:42:18.549, 1587811338549
69, 1140.13, 555.55, 745.02, 800.92, 0.032, 0.000, -0.896, 12:42:18.565, 1587811338565
70, 1129.79, 530.18, 746.10, 817.22, 0.032, 0.000, -0.896, 12:42:18.565, 1587811338565
71, 1151.67, 565.40, 770.76, 839.79, 0.032, 0.000, -0.896, 12:42:18.566, 1587811338566
72, 1166.31, 581.60, 757.62, 835.15, 0.032, 0.000, -0.896, 12:42:18.566, 1587811338566
73, 1136.16, 531.66, 717.61, 796.17, 0.032, 0.000, -0.896, 12:42:18.579, 1587811338579
74, 1116.71, 508.75, 721.18, 801.98, 0.032, 0.000, -0.896, 12:42:18.579, 1587811338579
75, 1145.42, 548.43, 752.08, 837.40, 0.032, 0.000, -0.896, 12:42:18.594, 1587811338594
76, 1160.12, 570.51, 744.30, 831.33, 0.032, 0.000, -0.896, 12:42:18.594, 1587811338594
77, 1139.21, 519.91, 704.60, 799.08, 0.032, 0.000, -0.896, 12:42:18.595, 1587811338595
78, 1131.31, 512.16, 726.99, 815.18, 0.032, 0.000, -0.896, 12:42:18.595, 1587811338595
79, 1140.59, 533.66, 743.59, 841.54, 0.032, 0.000, -0.896, 12:42:18.608, 1587811338608
80, 1154.23, 552.32, 734.19, 834.90, 0.032, 0.000, -0.896, 12:42:18.608, 1587811338608
81, 1134.98, 522.20, 704.23, 809.06, 0.032, 0.000, -0.896, 12:42:18.624, 1587811338624
82, 1123.63, 498.88, 713.55, 824.37, 0.032, 0.000, -0.896, 12:42:18.624, 1587811338624
83, 1144.14, 530.56, 736.64, 853.19, 0.032, 0.000, -0.896, 12:42:18.625, 1587811338625
84, 1160.52, 540.63, 720.84, 833.56, 0.032, 0.000, -0.896, 12:42:18.625, 1587811338625
85, 1131.82, 503.95, 686.66, 802.67, 0.032, 0.000, -0.896, 12:42:18.638, 1587811338638
86, 1112.30, 475.11, 682.71, 806.44, 0.032, 0.000, -0.960, 12:42:18.638, 1587811338638
87, 1138.55, 510.94, 717.60, 839.73, 0.032, 0.000, -0.960, 12:42:18.654, 1587811338654
88, 1157.86, 527.98, 705.54, 825.26, 0.032, 0.000, -0.960, 12:42:18.654, 1587811338654
89, 1138.02, 498.52, 672.85, 807.85, 0.032, 0.000, -0.960, 12:42:18.655, 1587811338655
90, 1120.32, 473.70, 678.47, 823.80, 0.032, 0.000, -0.960, 12:42:18.655, 1587811338655
91, 1151.16, 507.01, 706.78, 848.84, 0.032, 0.000, -0.960, 12:42:18.669, 1587811338669
92, 1163.48, 522.78, 699.70, 837.66, 0.032, 0.000, -0.960, 12:42:18.669, 1587811338669
93, 1129.70, 490.36, 666.22, 807.57, 0.032, 0.000, -0.960, 12:42:18.684, 1587811338684
94, 1110.70, 460.94, 666.30, 819.07, 0.032, 0.000, -0.960, 12:42:18.684, 1587811338684
95, 1144.39, 504.09, 704.68, 860.75, 0.032, 0.000, -0.960, 12:42:18.699, 1587811338699
96, 1151.29, 524.36, 691.35, 847.63, 0.032, 0.000, -0.960, 12:42:18.699, 1587811338699
97, 1129.41, 491.25, 658.26, 823.21, 0.032, 0.000, -0.960, 12:42:18.700, 1587811338700
98, 1118.64, 458.19, 661.40, 833.68, 0.032, 0.000, -0.960, 12:42:18.700, 1587811338700
99, 1137.57, 490.35, 683.95, 861.05, 0.032, 0.000, -0.960, 12:42:18.714, 1587811338714
100, 1157.94, 506.41, 675.90, 842.67, 0.032, 0.000, -0.960, 12:42:18.714, 1587811338714
101, 1127.50, 476.94, 650.31, 814.02, 0.032, 0.000, -0.960, 12:42:18.715, 1587811338715
102, 1114.09, 455.04, 656.22, 824.87, 0.032, 0.000, -0.960, 12:42:18.715, 1587811338715
103, 1141.54, 490.25, 687.42, 859.92, 0.032, 0.000, -0.960, 12:42:18.729, 1587811338729
104, 1152.38, 513.19, 675.69, 853.53, 0.032, 0.000, -0.960, 12:42:18.729, 1587811338729
105, 1130.03, 471.16, 643.62, 823.21, 0.032, 0.000, -0.960, 12:42:18.761, 1587811338761
106, 1120.72, 455.61, 656.17, 836.41, 0.032, 0.000, -0.992, 12:42:18.761, 1587811338761
107, 1144.76, 485.12, 678.11, 861.62, 0.032, 0.000, -0.992, 12:42:18.761, 1587811338761
108, 1160.72, 504.71, 667.00, 852.23, 0.032, 0.000, -0.992, 12:42:18.761, 1587811338761
109, 1132.41, 473.73, 639.81, 825.70, 0.032, 0.000, -0.992, 12:42:18.762, 1587811338762
110, 1114.14, 447.86, 647.35, 835.39, 0.032, 0.000, -0.992, 12:42:18.762, 1587811338762
111, 1138.95, 476.60, 668.57, 860.90, 0.032, 0.000, -0.992, 12:42:18.763, 1587811338763
112, 1160.70, 503.82, 660.69, 855.08, 0.032, 0.000, -0.992, 12:42:18.763, 1587811338763
113, 1127.63, 458.74, 627.28, 829.15, 0.032, 0.000, -0.992, 12:42:18.776, 1587811338776
114, 1117.43, 448.89, 639.72, 839.17, 0.032, 0.000, -0.992, 12:42:18.776, 1587811338776
115, 1141.25, 475.15, 665.50, 864.47, 0.032, 0.000, -0.992, 12:42:18.788, 1587811338788
116, 1161.17, 494.93, 658.61, 855.21, 0.032, 0.000, -0.992, 12:42:18.788, 1587811338788
117, 1138.03, 462.72, 626.11, 820.57, 0.032, 0.000, -0.992, 12:42:18.804, 1587811338804
118, 1114.73, 444.67, 639.43, 833.62, 0.032, 0.000, -0.992, 12:42:18.804, 1587811338804
119, 1143.00, 479.27, 667.96, 861.91, 0.032, 0.000, -0.992, 12:42:18.819, 1587811338819
120, 1164.27, 494.44, 658.50, 858.18, 0.032, 0.000, -0.992, 12:42:18.819, 1587811338819
121, 1131.28, 457.57, 620.11, 826.18, 0.032, 0.000, -0.992, 12:42:18.820, 1587811338820
122, 1121.27, 440.92, 632.43, 843.21, 0.032, 0.000, -0.992, 12:42:18.820, 1587811338820
123, 1140.09, 466.81, 656.34, 866.87, 0.032, 0.000, -0.992, 12:42:18.834, 1587811338834
124, 1152.36, 488.59, 645.19, 861.25, 0.032, 0.000, -0.992, 12:42:18.834, 1587811338834
125, 1125.90, 451.90, 616.26, 833.14, 0.032, 0.000, -0.992, 12:42:18.835, 1587811338835
126, 1109.34, 430.05, 623.45, 844.73, 0.032, 0.000, -1.008, 12:42:18.835, 1587811338835
127, 1136.61, 468.37, 657.46, 875.56, 0.032, 0.000, -1.008, 12:42:18.849, 1587811338849
128, 1160.99, 496.56, 653.43, 873.21, 0.032, 0.000, -1.008, 12:42:18.849, 1587811338849
129, 1143.32, 462.79, 624.86, 842.72, 0.032, 0.000, -1.008, 12:42:18.864, 1587811338864
130, 1121.05, 445.78, 627.17, 847.36, 0.032, 0.000, -1.008, 12:42:18.864, 1587811338864
131, 1145.21, 470.61, 655.32, 878.44, 0.032, 0.000, -1.008, 12:42:18.880, 1587811338880
132, 1181.36, 477.94, 651.28, 867.20, 0.032, 0.000, -1.008, 12:42:18.880, 1587811338880
133, 1129.61, 440.34, 605.22, 843.48, 0.032, 0.000, -1.008, 12:42:18.881, 1587811338881
134, 1122.32, 449.84, 621.17, 853.06, 0.032, 0.000, -1.008, 12:42:18.881, 1587811338881
135, 1152.24, 464.82, 637.86, 875.24, 0.032, 0.000, -1.008, 12:42:18.894, 1587811338894
136, 1172.71, 483.31, 629.00, 872.28, 0.032, 0.000, -1.008, 12:42:18.894, 1587811338894
137, 1144.40, 432.89, 583.62, 832.75, 0.032, 0.000, -1.008, 12:42:18.895, 1587811338895
138, 1134.02, 414.05, 599.01, 851.61, 0.032, 0.000, -1.008, 12:42:18.895, 1587811338895
139, 1156.41, 446.07, 627.74, 882.23, 0.032, 0.000, -1.008, 12:42:18.909, 1587811338909
140, 1167.97, 473.27, 622.19, 875.07, 0.032, 0.000, -1.008, 12:42:18.909, 1587811338909
141, 1134.18, 428.56, 583.08, 832.57, 0.032, 0.000, -1.008, 12:42:18.924, 1587811338924
142, 1123.50, 414.04, 594.29, 849.99, 0.032, 0.000, -1.008, 12:42:18.924, 1587811338924
143, 1154.66, 448.39, 633.67, 879.50, 0.032, 0.000, -1.008, 12:42:18.925, 1587811338925
144, 1173.14, 470.79, 622.93, 865.68, 0.032, 0.000, -1.008, 12:42:18.925, 1587811338925
145, 1145.20, 433.20, 584.32, 834.49, 0.032, 0.000, -1.008, 12:42:18.939, 1587811338939
146, 1122.75, 405.63, 593.87, 840.54, 0.032, 0.000, -1.024, 12:42:18.939, 1587811338939
147, 1157.37, 450.74, 632.25, 881.63, 0.032, 0.000, -1.024, 12:42:18.955, 1587811338955
148, 1169.06, 472.11, 614.97, 865.83, 0.032, 0.000, -1.024, 12:42:18.955, 1587811338955
149, 1139.04, 430.12, 583.56, 834.01, 0.032, 0.000, -1.024, 12:42:18.956, 1587811338956
150, 1126.49, 407.52, 589.90, 841.72, 0.032, 0.000, -1.024, 12:42:18.956, 1587811338956
151, 1151.25, 437.41, 617.17, 875.37, 0.032, 0.000, -1.024, 12:42:18.969, 1587811338969
152, 1168.63, 460.06, 613.01, 866.88, 0.032, 0.000, -1.024, 12:42:18.969, 1587811338969
153, 1142.29, 429.01, 584.55, 834.60, 0.032, 0.000, -1.024, 12:42:18.985, 1587811338985
154, 1124.35, 412.48, 591.20, 841.39, 0.032, 0.000, -1.024, 12:42:18.985, 1587811338985
155, 1150.00, 442.77, 622.56, 873.26, 0.032, 0.000, -1.024, 12:42:18.986, 1587811338986
156, 1149.74, 436.17, 608.12, 874.46, 0.032, 0.000, -1.024, 12:42:18.986, 1587811338986
157, 1134.67, 414.25, 593.73, 841.34, 0.032, 0.000, -1.024, 12:42:18.998, 1587811338998
158, 1168.99, 473.01, 617.44, 836.74, 0.032, 0.000, -1.024, 12:42:18.998, 1587811338998
159, 1167.97, 468.91, 605.17, 861.79, 0.032, 0.000, -1.024, 12:42:19.014, 1587811339014
160, 1128.33, 420.50, 600.56, 870.64, 0.032, 0.000, -1.024, 12:42:19.014, 1587811339014
161, 1122.62, 404.20, 593.62, 846.55, 0.032, 0.000, -1.024, 12:42:19.015, 1587811339015
162, 1163.92, 459.58, 612.77, 836.13, 0.032, 0.000, -1.024, 12:42:19.015, 1587811339015
163, 1167.56, 451.73, 603.85, 862.30, 0.032, 0.000, -1.024, 12:42:19.030, 1587811339030
164, 1116.10, 405.25, 584.01, 864.88, 0.032, 0.000, -1.024, 12:42:19.030, 1587811339030
165, 1117.04, 402.79, 601.75, 843.05, 0.032, 0.000, -1.024, 12:42:19.044, 1587811339044
166, 1167.11, 461.40, 618.87, 851.27, 0.032, 0.000, -1.024, 12:42:19.044, 1587811339044
167, 1174.22, 478.05, 613.50, 862.27, 0.032, 0.000, -1.024, 12:42:19.045, 1587811339045
168, 1128.05, 417.50, 602.74, 868.65, 0.032, 0.000, -1.024, 12:42:19.045, 1587811339045
169, 1119.11, 411.97, 607.46, 846.41, 0.032, 0.000, -1.024, 12:42:19.060, 1587811339060
170, 1166.42, 465.85, 614.62, 840.84, 0.032, 0.000, -1.024, 12:42:19.060, 1587811339060
171, 1169.31, 470.96, 608.71, 869.44, 0.032, 0.000, -1.024, 12:42:19.074, 1587811339074
172, 1128.95, 408.42, 591.02, 865.11, 0.032, 0.000, -1.024, 12:42:19.074, 1587811339074
173, 1125.89, 420.03, 603.09, 843.48, 0.032, 0.000, -1.024, 12:42:19.075, 1587811339075
174, 1178.16, 469.44, 615.73, 840.98, 0.032, 0.000, -1.024, 12:42:19.075, 1587811339075
175, 1177.76, 482.87, 615.59, 859.29, 0.032, 0.000, -1.024, 12:42:19.089, 1587811339089
176, 1135.63, 424.94, 599.57, 871.42, 0.032, 0.000, -1.024, 12:42:19.089, 1587811339089
177, 1122.64, 418.03, 599.63, 845.89, 0.032, 0.000, -1.024, 12:42:19.104, 1587811339104
178, 1175.82, 484.17, 621.93, 841.79, 0.032, 0.000, -1.024, 12:42:19.104, 1587811339104
179, 1179.78, 497.47, 627.61, 861.14, 0.032, 0.000, -1.024, 12:42:19.105, 1587811339105
180, 1139.81, 442.31, 613.83, 857.70, 0.032, 0.000, -1.024, 12:42:19.105, 1587811339105
181, 1137.25, 453.70, 627.79, 846.26, 0.032, 0.000, -1.024, 12:42:19.119, 1587811339119
182, 1178.29, 511.83, 642.28, 843.19, 0.032, 0.000, -1.024, 12:42:19.119, 1587811339119
183, 1179.33, 513.89, 628.80, 860.49, 0.032, 0.000, -1.024, 12:42:19.135, 1587811339135
184, 1129.30, 455.86, 615.19, 864.85, 0.032, 0.000, -1.024, 12:42:19.135, 1587811339135
185, 1138.25, 452.35, 620.24, 842.49, 0.032, 0.000, -1.024, 12:42:19.136, 1587811339136
186, 1177.30, 503.90, 625.83, 839.56, 0.032, 0.000, -1.024, 12:42:19.136, 1587811339136
187, 1182.43, 506.95, 625.32, 864.56, 0.032, 0.000, -1.024, 12:42:19.149, 1587811339149
188, 1138.02, 457.93, 608.20, 856.91, 0.032, 0.000, -1.024, 12:42:19.149, 1587811339149
189, 1143.53, 466.48, 618.05, 849.94, 0.032, 0.000, -1.024, 12:42:19.165, 1587811339165
190, 1199.43, 521.43, 640.09, 851.69, 0.032, 0.000, -1.024, 12:42:19.165, 1587811339165
191, 1180.10, 511.41, 625.32, 861.48, 0.032, 0.000, -1.024, 12:42:19.167, 1587811339167
192, 1132.82, 473.26, 615.75, 872.79, 0.032, 0.000, -1.024, 12:42:19.167, 1587811339167
193, 1142.04, 480.25, 627.84, 850.28, 0.032, 0.000, -1.024, 12:42:19.195, 1587811339195
194, 1188.44, 526.25, 637.03, 830.81, 0.032, 0.000, -1.024, 12:42:19.195, 1587811339195
195, 1177.16, 505.20, 619.59, 866.79, 0.032, 0.000, -1.024, 12:42:19.196, 1587811339196
196, 1139.73, 467.69, 611.85, 868.26, 0.032, 0.000, -1.024, 12:42:19.196, 1587811339196
197, 1142.31, 477.09, 619.21, 839.81, 0.032, 0.000, -1.024, 12:42:19.196, 1587811339196
198, 1188.02, 524.33, 623.62, 836.70, 0.032, 0.000, -1.024, 12:42:19.196, 1587811339196
199, 1182.70, 522.41, 627.56, 870.45, 0.032, 0.000, -1.024, 12:42:19.209, 1587811339209
200, 1135.18, 468.23, 617.01, 869.19, 0.032, 0.000, -1.024, 12:42:19.209, 1587811339209
0, 1132.49, 461.66, 617.03, 845.44, 0.032, 0.000, -1.024, 12:42:19.210, 1587811339210
1, 1178.37, 515.10, 629.05, 843.50, 0.032, 0.000, -1.024, 12:42:19.224, 1587811339224
2, 1166.18, 512.28, 619.53, 861.33, 0.032, 0.000, -1.024, 12:42:19.224, 1587811339224
3, 1115.86, 464.91, 607.45, 866.40, 0.032, 0.000, -1.024, 12:42:19.240, 1587811339240
4, 1128.10, 471.07, 618.17, 844.97, 0.032, 0.000, -1.024, 12:42:19.240, 1587811339240
5, 1167.02, 510.95, 621.61, 834.64, 0.032, 0.000, -1.024, 12:42:19.254, 1587811339254
6, 1167.59, 515.48, 620.21, 865.32, 0.032, 0.000, -1.024, 12:42:19.254, 1587811339254
7, 1136.65, 465.71, 612.77, 879.65, 0.032, 0.000, -1.024, 12:42:19.255, 1587811339255
8, 1126.23, 460.93, 609.67, 847.95, 0.032, 0.000, -1.024, 12:42:19.255, 1587811339255
9, 1165.79, 503.36, 618.24, 838.51, 0.032, 0.000, -1.024, 12:42:19.270, 1587811339270
10, 1162.14, 502.73, 615.53, 859.63, 0.032, 0.000, -1.024, 12:42:19.270, 1587811339270
11, 1122.55, 455.27, 602.28, 864.71, 0.032, 0.000, -1.024, 12:42:19.271, 1587811339271
12, 1124.28, 449.82, 606.67, 849.91, 0.032, 0.000, -1.024, 12:42:19.271, 1587811339271
13, 1161.07, 499.84, 613.81, 848.79, 0.032, 0.000, -1.024, 12:42:19.284, 1587811339284
14, 1161.86, 499.08, 608.32, 867.47, 0.032, 0.000, -1.024, 12:42:19.284, 1587811339284
15, 1118.29, 453.07, 598.36, 862.98, 0.032, 0.000, -1.024, 12:42:19.316, 1587811339316
16, 1128.36, 455.29, 615.30, 843.67, 0.032, 0.000, -1.024, 12:42:19.316, 1587811339316
17, 1163.95, 482.49, 611.62, 841.05, 0.032, 0.000, -1.024, 12:42:19.316, 1587811339316
18, 1161.32, 488.83, 611.88, 860.93, 0.032, 0.000, -1.024, 12:42:19.316, 1587811339316
19, 1116.54, 425.14, 590.88, 862.93, 0.032, 0.000, -1.024, 12:42:19.317, 1587811339317
20, 1112.74, 437.50, 594.15, 842.21, 0.032, 0.000, -1.024, 12:42:19.317, 1587811339317
21, 1160.58, 478.76, 605.79, 834.21, 0.032, 0.000, -1.024, 12:42:19.318, 1587811339318
22, 1150.81, 473.12, 598.73, 860.28, 0.032, 0.000, -1.024, 12:42:19.318, 1587811339318
23, 1108.66, 423.14, 593.38, 861.38, 0.032, 0.000, -1.024, 12:42:19.329, 1587811339329
24, 1109.10, 413.06, 587.90, 836.08, 0.032, 0.000, -1.024, 12:42:19.329, 1587811339329
25, 1159.62, 461.28, 598.30, 839.62, 0.032, 0.000, -1.024, 12:42:19.345, 1587811339345
26, 1143.75, 448.90, 590.99, 857.00, 0.032, 0.000, -1.024, 12:42:19.345, 1587811339345
27, 1107.75, 426.52, 585.16, 868.40, 0.032, 0.000, -1.024, 12:42:19.376, 1587811339376
28, 1113.18, 425.40, 589.57, 839.50, 0.032, 0.000, -1.024, 12:42:19.376, 1587811339376
29, 1160.62, 469.69, 602.69, 836.95, 0.032, 0.000, -1.024, 12:42:19.379, 1587811339379
30, 1153.21, 471.41, 593.86, 856.03, 0.032, 0.000, -1.024, 12:42:19.379, 1587811339379
31, 1114.29, 437.04, 589.36, 873.05, 0.032, 0.000, -1.024, 12:42:19.379, 1587811339379
32, 1122.64, 439.06, 608.79, 843.93, 0.032, 0.000, -1.024, 12:42:19.379, 1587811339379
33, 1162.82, 485.45, 616.97, 843.69, 0.032, 0.000, -1.024, 12:42:19.380, 1587811339380
34, 1149.80, 475.86, 603.66, 868.67, 0.032, 0.000, -1.024, 12:42:19.380, 1587811339380
35, 1102.77, 425.49, 584.89, 867.16, 0.032, 0.000, -1.024, 12:42:19.389, 1587811339389
36, 1118.36, 440.61, 605.67, 845.13, 0.032, 0.000, -1.024, 12:42:19.389, 1587811339389
37, 1153.24, 468.18, 606.03, 835.91, 0.032, 0.000, -1.024, 12:42:19.404, 1587811339404
38, 1158.30, 487.40, 615.58, 860.50, 0.032, 0.000, -1.024, 12:42:19.404, 1587811339404
39, 1114.10, 439.15, 598.09, 861.03, 0.032, 0.000, -1.024, 12:42:19.436, 1587811339436
40, 1120.19, 443.02, 615.95, 848.02, 0.032, 0.000, -1.024, 12:42:19.436, 1587811339436
41, 1159.76, 494.23, 622.91, 841.89, 0.032, 0.000, -1.024, 12:42:19.436, 1587811339436
42, 1159.54, 495.27, 615.91, 862.03, 0.032, 0.000, -1.024, 12:42:19.436, 1587811339436
43, 1122.44, 454.24, 608.23, 875.70, 0.032, 0.000, -1.024, 12:42:19.437, 1587811339437
44, 1125.59, 457.70, 612.75, 857.38, 0.032, 0.000, -1.024, 12:42:19.437, 1587811339437
45, 1167.29, 500.82, 622.74, 846.17, 0.032, 0.000, -1.024, 12:42:19.438, 1587811339438
46, 1160.74, 501.88, 613.02, 870.23, 0.032, 0.000, -1.024, 12:42:19.438, 1587811339438
47, 1117.11, 457.33, 604.95, 869.48, 0.032, 0.000, -1.024, 12:42:19.451, 1587811339451
48, 1119.20, 454.37, 612.19, 839.56, 0.032, 0.000, -1.024, 12:42:19.451, 1587811339451
49, 1167.93, 502.02, 627.74, 836.03, 0.032, 0.000, -1.024, 12:42:19.464, 1587811339464
50, 1164.56, 508.73, 624.72, 861.47, 0.032, 0.000, -1.024, 12:42:19.464, 1587811339464
51, 1120.19, 469.60, 612.97, 863.46, 0.032, 0.000, -1.024, 12:42:19.480, 1587811339480
52, 1129.93, 476.60, 628.16, 842.43, 0.032, 0.000, -1.024, 12:42:19.480, 1587811339480
53, 1164.53, 518.78, 637.23, 838.98, 0.032, 0.000, -1.024, 12:42:19.481, 1587811339481
54, 1165.47, 513.42, 626.51, 861.82, 0.032, 0.000, -1.024, 12:42:19.481, 1587811339481
55, 1121.55, 470.40, 615.89, 866.72, 0.032, 0.000, -1.024, 12:42:19.494, 1587811339494
56, 1121.15, 458.62, 610.26, 842.23, 0.032, 0.000, -1.024, 12:42:19.494, 1587811339494
57, 1161.67, 512.65, 640.90, 833.57, 0.032, 0.000, -1.024, 12:42:19.509, 1587811339509
58, 1155.34, 513.96, 628.95, 866.63, 0.032, 0.000, -1.024, 12:42:19.509, 1587811339509
59, 1112.93, 461.12, 609.12, 865.52, 0.032, 0.000, -1.024, 12:42:19.510, 1587811339510
60, 1119.95, 458.37, 619.13, 851.86, 0.032, 0.000, -1.024, 12:42:19.510, 1587811339510
61, 1158.99, 495.43, 626.77, 836.49, 0.032, 0.000, -1.024, 12:42:19.525, 1587811339525
62, 1150.13, 494.66, 614.98, 838.02, 0.032, 0.000, -1.024, 12:42:19.525, 1587811339525
63, 1121.23, 467.10, 619.21, 878.01, 0.032, 0.000, -1.024, 12:42:19.539, 1587811339539
64, 1117.27, 447.89, 611.02, 848.76, 0.032, 0.000, -1.024, 12:42:19.539, 1587811339539
65, 1161.81, 496.18, 623.04, 835.39, 0.032, 0.000, -1.024, 12:42:19.540, 1587811339540
66, 1160.15, 494.03, 619.87, 872.76, 0.032, 0.000, -1.024, 12:42:19.540, 1587811339540
67, 1111.28, 429.16, 589.83, 862.92, 0.032, 0.000, -1.024, 12:42:19.554, 1587811339554
68, 1113.79, 428.52, 602.68, 840.91, 0.032, 0.000, -1.024, 12:42:19.554, 1587811339554
69, 1149.85, 472.74, 613.18, 837.54, 0.032, 0.000, -1.024, 12:42:19.569, 1587811339569
70, 1144.53, 464.56, 602.22, 856.70, 0.032, 0.000, -1.024, 12:42:19.569, 1587811339569
71, 1111.82, 434.24, 597.59, 872.96, 0.032, 0.000, -1.024, 12:42:19.570, 1587811339570
72, 1118.42, 437.16, 612.35, 847.57, 0.032, 0.000, -1.024, 12:42:19.570, 1587811339570
73, 1145.32, 466.72, 616.16, 838.33, 0.032, 0.000, -1.024, 12:42:19.584, 1587811339584
74, 1144.72, 466.73, 601.83, 858.78, 0.032, 0.000, -1.024, 12:42:19.584, 1587811339584
75, 1102.93, 426.60, 587.01, 856.18, 0.032, 0.000, -1.024, 12:42:19.600, 1587811339600
76, 1119.85, 426.99, 605.18, 841.50, 0.032, 0.000, -1.024, 12:42:19.600, 1587811339600
77, 1151.43, 474.60, 612.84, 839.23, 0.032, 0.000, -1.024, 12:42:19.601, 1587811339601
78, 1150.50, 475.58, 611.38, 865.81, 0.032, 0.000, -1.024, 12:42:19.601, 1587811339601
79, 1101.47, 423.17, 590.06, 858.68, 0.032, 0.000, -1.024, 12:42:19.614, 1587811339614
80, 1113.35, 418.67, 600.94, 844.15, 0.032, 0.000, -1.024, 12:42:19.614, 1587811339614
81, 1153.14, 458.91, 613.27, 833.98, 0.032, 0.000, -1.024, 12:42:19.630, 1587811339630
82, 1145.14, 456.99, 591.18, 849.09, 0.032, 0.000, -1.024, 12:42:19.630, 1587811339630
83, 1119.77, 432.99, 596.67, 862.32, 0.032, 0.000, -1.024, 12:42:19.631, 1587811339631
84, 1115.56, 426.86, 609.47, 840.51, 0.032, 0.000, -1.024, 12:42:19.631, 1587811339631
85, 1149.80, 466.90, 614.31, 839.81, 0.032, 0.000, -1.024, 12:42:19.644, 1587811339644
86, 1148.46, 466.02, 605.06, 864.47, 0.032, -0.016, -1.024, 12:42:19.644, 1587811339644
87, 1104.37, 415.58, 586.64, 860.61, 0.032, -0.016, -1.024, 12:42:19.659, 1587811339659
88, 1110.34, 405.56, 586.60, 844.59, 0.032, -0.016, -1.024, 12:42:19.659, 1587811339659
89, 1151.99, 466.48, 615.51, 834.75, 0.032, -0.016, -1.024, 12:42:19.660, 1587811339660
90, 1148.41, 471.95, 604.67, 864.85, 0.032, -0.016, -1.024, 12:42:19.660, 1587811339660
91, 1113.81, 431.56, 599.39, 877.07, 0.032, -0.016, -1.024, 12:42:19.674, 1587811339674
92, 1110.17, 416.00, 591.06, 844.59, 0.032, -0.016, -1.024, 12:42:19.674, 1587811339674
93, 1145.04, 455.91, 605.63, 834.16, 0.032, -0.016, -1.024, 12:42:19.689, 1587811339689
94, 1152.18, 477.65, 610.56, 871.22, 0.032, -0.016, -1.024, 12:42:19.689, 1587811339689
95, 1112.26, 423.43, 584.72, 865.97, 0.032, -0.016, -1.024, 12:42:19.690, 1587811339690
96, 1125.47, 430.77, 608.20, 853.42, 0.032, -0.016, -1.024, 12:42:19.690, 1587811339690
97, 1147.71, 462.92, 609.33, 846.76, 0.032, -0.016, -1.024, 12:42:19.704, 1587811339704
98, 1145.92, 469.39, 606.11, 870.36, 0.032, -0.016, -1.024, 12:42:19.704, 1587811339704
99, 1110.45, 428.42, 594.29, 865.94, 0.032, -0.016, -1.024, 12:42:19.719, 1587811339719
100, 1107.75, 409.01, 592.40, 844.11, 0.032, -0.016, -1.024, 12:42:19.719, 1587811339719
101, 1154.61, 473.50, 614.55, 845.33, 0.032, -0.016, -1.024, 12:42:19.720, 1587811339720
102, 1152.40, 480.69, 607.71, 869.21, 0.032, -0.016, -1.024, 12:42:19.720, 1587811339720
103, 1107.36, 427.53, 586.83, 862.04, 0.032, -0.016, -1.024, 12:42:19.734, 1587811339734
104, 1111.40, 424.44, 600.55, 846.68, 0.032, -0.016, -1.024, 12:42:19.734, 1587811339734
105, 1155.55, 471.75, 613.30, 846.71, 0.032, -0.016, -1.024, 12:42:19.749, 1587811339749
106, 1132.40, 463.55, 597.55, 863.21, 0.048, 0.000, -1.024, 12:42:19.749, 1587811339749
107, 1106.94, 426.32, 588.75, 866.39, 0.048, 0.000, -1.024, 12:42:19.751, 1587811339751
108, 1108.78, 418.10, 598.15, 849.09, 0.048, 0.000, -1.024, 12:42:19.751, 1587811339751
109, 1148.26, 469.66, 613.75, 843.89, 0.048, 0.000, -1.024, 12:42:19.764, 1587811339764
110, 1153.42, 478.02, 616.33, 870.44, 0.048, 0.000, -1.024, 12:42:19.764, 1587811339764
111, 1113.78, 440.48, 605.64, 880.10, 0.048, 0.000, -1.024, 12:42:19.780, 1587811339780
112, 1106.88, 428.75, 598.25, 840.20, 0.048, 0.000, -1.024, 12:42:19.780, 1587811339780
113, 1135.81, 461.81, 610.62, 843.77, 0.048, 0.000, -1.024, 12:42:19.781, 1587811339781
114, 1142.33, 477.28, 609.24, 877.72, 0.048, 0.000, -1.024, 12:42:19.781, 1587811339781
115, 1104.76, 427.73, 593.37, 873.65, 0.048, 0.000, -1.024, 12:42:19.810, 1587811339810
116, 1108.81, 430.73, 605.50, 857.32, 0.048, 0.000, -1.024, 12:42:19.810, 1587811339810
117, 1142.49, 465.66, 611.27, 852.44, 0.048, 0.000, -1.024, 12:42:19.812, 1587811339812
118, 1144.27, 479.57, 612.43, 873.98, 0.048, 0.000, -1.024, 12:42:19.812, 1587811339812
119, 1118.15, 446.48, 609.27, 880.02, 0.048, 0.000, -1.024, 12:42:19.813, 1587811339813
120, 1114.40, 440.39, 607.25, 846.80, 0.048, 0.000, -1.024, 12:42:19.813, 1587811339813
121, 1138.80, 474.54, 612.69, 835.74, 0.048, 0.000, -1.024, 12:42:19.823, 1587811339823
122, 1139.37, 478.13, 610.24, 868.16, 0.048, 0.000, -1.024, 12:42:19.823, 1587811339823
123, 1102.36, 433.24, 588.68, 869.32, 0.048, 0.000, -1.024, 12:42:19.839, 1587811339839
124, 1102.92, 429.84, 597.36, 847.09, 0.048, 0.000, -1.024, 12:42:19.839, 1587811339839
125, 1148.71, 481.07, 617.41, 847.69, 0.048, 0.000, -1.024, 12:42:19.840, 1587811339840
126, 1143.23, 484.13, 607.65, 867.53, 0.048, 0.000, -1.024, 12:42:19.840, 1587811339840
127, 1110.73, 442.83, 604.55, 875.71, 0.048, 0.000, -1.024, 12:42:19.870, 1587811339870
128, 1106.83, 449.75, 617.26, 849.63, 0.048, 0.000, -1.024, 12:42:19.870, 1587811339870
129, 1150.45, 484.82, 620.34, 845.51, 0.048, 0.000, -1.024, 12:42:19.870, 1587811339870
130, 1145.61, 480.58, 608.07, 868.04, 0.048, 0.000, -1.024, 12:42:19.870, 1587811339870
131, 1106.69, 435.93, 595.11, 870.39, 0.048, 0.000, -1.024, 12:42:19.871, 1587811339871
132, 1103.77, 429.14, 595.28, 842.84, 0.048, 0.000, -1.024, 12:42:19.871, 1587811339871
133, 1138.71, 474.45, 614.34, 837.23, 0.048, 0.000, -1.024, 12:42:19.884, 1587811339884
134, 1144.55, 483.04, 617.11, 871.42, 0.048, 0.000, -1.024, 12:42:19.884, 1587811339884
135, 1101.48, 434.48, 597.28, 864.87, 0.048, 0.000, -1.024, 12:42:19.899, 1587811339899
136, 1108.07, 435.79, 602.02, 838.55, 0.048, 0.000, -1.024, 12:42:19.899, 1587811339899
137, 1145.03, 478.85, 615.44, 838.04, 0.048, 0.000, -1.024, 12:42:19.900, 1587811339900
138, 1145.83, 487.87, 613.39, 860.58, 0.048, 0.000, -1.024, 12:42:19.900, 1587811339900
139, 1106.47, 444.48, 604.04, 877.09, 0.048, 0.000, -1.024, 12:42:19.930, 1587811339930
140, 1107.64, 436.08, 607.00, 854.26, 0.048, 0.000, -1.024, 12:42:19.930, 1587811339930
141, 1138.44, 470.87, 610.71, 831.40, 0.048, 0.000, -1.024, 12:42:19.931, 1587811339931
142, 1151.07, 490.97, 617.96, 869.86, 0.048, 0.000, -1.024, 12:42:19.931, 1587811339931
143, 1107.71, 447.32, 602.07, 870.16, 0.048, 0.000, -1.024, 12:42:19.931, 1587811339931
144, 1111.92, 441.65, 616.25, 848.39, 0.048, 0.000, -1.024, 12:42:19.931, 1587811339931
145, 1152.38, 481.56, 621.54, 838.81, 0.048, 0.000, -1.024, 12:42:19.944, 1587811339944
146, 1148.93, 493.10, 619.81, 867.93, 0.048, 0.000, -1.024, 12:42:19.944, 1587811339944
147, 1099.17, 443.27, 600.91, 869.08, 0.048, 0.000, -1.024, 12:42:19.960, 1587811339960
148, 1113.47, 437.68, 602.23, 842.32, 0.048, 0.000, -1.024, 12:42:19.960, 1587811339960
149, 1141.30, 482.54, 613.41, 841.59, 0.048, 0.000, -1.024, 12:42:19.961, 1587811339961
150, 1139.85, 482.01, 613.19, 863.24, 0.048, 0.000, -1.024, 12:42:19.961, 1587811339961
151, 1102.32, 443.27, 598.95, 864.26, 0.048, 0.000, -1.024, 12:42:19.974, 1587811339974
152, 1108.62, 442.62, 607.12, 838.85, 0.048, 0.000, -1.024, 12:42:19.974, 1587811339974
153, 1152.01, 489.83, 624.75, 841.90, 0.048, 0.000, -1.024, 12:42:19.990, 1587811339990
154, 1140.97, 481.10, 609.41, 859.50, 0.048, 0.000, -1.024, 12:42:19.990, 1587811339990
155, 1103.31, 437.38, 591.83, 860.77, 0.048, 0.000, -1.024, 12:42:19.990, 1587811339990
156, 1107.64, 436.67, 602.76, 836.48, 0.048, 0.000, -1.024, 12:42:19.990, 1587811339990
157, 1139.15, 472.60, 605.91, 824.95, 0.048, 0.000, -1.024, 12:42:20.020, 1587811340020
158, 1137.77, 477.62, 603.80, 862.09, 0.048, 0.000, -1.024, 12:42:20.020, 1587811340020
159, 1106.98, 428.80, 590.31, 859.37, 0.048, 0.000, -1.024, 12:42:20.021, 1587811340021
160, 1106.52, 422.83, 596.10, 831.61, 0.048, 0.000, -1.024, 12:42:20.021, 1587811340021
161, 1145.78, 475.12, 611.74, 839.55, 0.048, 0.000, -1.024, 12:42:20.022, 1587811340022
162, 1145.57, 484.30, 604.59, 862.02, 0.048, 0.000, -1.024, 12:42:20.022, 1587811340022
163, 1106.76, 438.14, 590.71, 861.07, 0.048, 0.000, -1.024, 12:42:20.034, 1587811340034
164, 1107.65, 424.22, 592.93, 840.88, 0.048, 0.000, -1.024, 12:42:20.034, 1587811340034
165, 1148.65, 466.90, 599.62, 833.03, 0.048, 0.000, -1.024, 12:42:20.049, 1587811340049
166, 1147.26, 470.16, 594.28, 860.15, 0.048, 0.000, -1.040, 12:42:20.049, 1587811340049
167, 1115.26, 439.28, 596.20, 870.07, 0.048, 0.000, -1.040, 12:42:20.050, 1587811340050
168, 1114.00, 433.02, 602.47, 846.53, 0.048, 0.000, -1.040, 12:42:20.050, 1587811340050
169, 1157.38, 472.19, 616.03, 838.45, 0.048, 0.000, -1.040, 12:42:20.064, 1587811340064
170, 1149.08, 466.50, 596.78, 854.02, 0.048, 0.000, -1.040, 12:42:20.064, 1587811340064
171, 1109.85, 427.60, 587.55, 859.72, 0.048, 0.000, -1.040, 12:42:20.079, 1587811340079
172, 1114.98, 421.26, 590.30, 835.75, 0.048, 0.000, -1.040, 12:42:20.079, 1587811340079
173, 1144.77, 469.60, 608.26, 838.84, 0.048, 0.000, -1.040, 12:42:20.080, 1587811340080
174, 1141.93, 471.65, 597.69, 860.98, 0.048, 0.000, -1.040, 12:42:20.080, 1587811340080
175, 1104.82, 431.89, 594.35, 866.47, 0.048, 0.000, -1.040, 12:42:20.094, 1587811340094
176, 1112.81, 428.60, 598.64, 844.17, 0.048, 0.000, -1.040, 12:42:20.094, 1587811340094
177, 1152.54, 469.30, 612.40, 843.68, 0.048, 0.000, -1.040, 12:42:20.109, 1587811340109
178, 1139.31, 468.98, 601.56, 861.22, 0.048, 0.000, -1.040, 12:42:20.109, 1587811340109
179, 1111.62, 432.63, 594.03, 867.94, 0.048, 0.000, -1.040, 12:42:20.110, 1587811340110
180, 1108.45, 424.21, 602.35, 843.91, 0.048, 0.000, -1.040, 12:42:20.110, 1587811340110
181, 1153.26, 472.31, 611.46, 830.65, 0.048, 0.000, -1.040, 12:42:20.123, 1587811340123
182, 1152.68, 476.46, 607.79, 863.17, 0.048, 0.000, -1.040, 12:42:20.123, 1587811340123
183, 1108.06, 424.20, 586.47, 866.89, 0.048, 0.000, -1.040, 12:42:20.140, 1587811340140
184, 1124.81, 436.41, 609.51, 845.46, 0.048, 0.000, -1.040, 12:42:20.140, 1587811340140
185, 1148.22, 465.72, 611.43, 832.41, 0.048, 0.000, -1.040, 12:42:20.141, 1587811340141
186, 1143.99, 469.54, 598.13, 853.56, 0.048, 0.000, -1.040, 12:42:20.141, 1587811340141
187, 1104.73, 424.07, 584.64, 864.22, 0.048, 0.000, -1.040, 12:42:20.154, 1587811340154
188, 1113.55, 427.82, 597.78, 835.58, 0.048, 0.000, -1.040, 12:42:20.154, 1587811340154
189, 1152.05, 472.89, 616.41, 831.75, 0.048, 0.000, -1.040, 12:42:20.169, 1587811340169
190, 1139.79, 478.41, 605.88, 856.14, 0.048, 0.000, -1.040, 12:42:20.169, 1587811340169
191, 1105.30, 424.03, 587.60, 860.21, 0.048, 0.000, -1.040, 12:42:20.170, 1587811340170
192, 1106.49, 420.33, 593.36, 833.85, 0.048, 0.000, -1.040, 12:42:20.170, 1587811340170
193, 1147.35, 474.77, 615.69, 834.15, 0.048, 0.000, -1.040, 12:42:20.183, 1587811340183
194, 1145.18, 476.67, 601.88, 857.54, 0.048, 0.000, -1.040, 12:42:20.183, 1587811340183
195, 1112.00, 435.06, 592.38, 872.05, 0.048, 0.000, -1.040, 12:42:20.200, 1587811340200
196, 1118.76, 439.12, 606.14, 844.19, 0.048, 0.000, -1.040, 12:42:20.200, 1587811340200
197, 1152.33, 479.54, 613.07, 841.27, 0.048, 0.000, -1.040, 12:42:20.201, 1587811340201
198, 1139.92, 471.90, 597.40, 858.37, 0.048, 0.000, -1.040, 12:42:20.201, 1587811340201
199, 1095.19, 430.13, 584.85, 870.21, 0.048, 0.000, -1.040, 12:42:20.214, 1587811340214
200, 1105.93, 427.22, 596.69, 840.75, 0.048, 0.000, -1.040, 12:42:20.214, 1587811340214
0, 1147.71, 481.06, 619.62, 835.51, 0.048, 0.000, -1.040, 12:42:20.215, 1587811340215
1, 1139.29, 479.54, 608.13, 853.31, 0.048, 0.000, -1.040, 12:42:20.228, 1587811340228
2, 1104.64, 431.37, 587.96, 856.12, 0.048, 0.000, -1.040, 12:42:20.228, 1587811340228
3, 1114.05, 439.15, 607.05, 830.43, 0.048, 0.000, -1.040, 12:42:20.245, 1587811340245
4, 1149.53, 491.92, 623.70, 835.02, 0.048, 0.000, -1.040, 12:42:20.245, 1587811340245
5, 1142.46, 488.92, 616.63, 860.08, 0.048, 0.000, -1.040, 12:42:20.246, 1587811340246
6, 1108.92, 448.12, 607.24, 868.69, 0.032, 0.000, -1.040, 12:42:20.246, 1587811340246
7, 1114.26, 446.39, 615.85, 843.70, 0.032, 0.000, -1.040, 12:42:20.259, 1587811340259
8, 1162.87, 498.26, 637.44, 843.59, 0.032, 0.000, -1.040, 12:42:20.259, 1587811340259
9, 1148.64, 486.85, 611.12, 856.06, 0.032, 0.000, -1.040, 12:42:20.275, 1587811340275
10, 1103.45, 444.28, 601.85, 861.19, 0.032, 0.000, -1.040, 12:42:20.275, 1587811340275
11, 1112.21, 444.32, 607.15, 839.27, 0.032, 0.000, -1.040, 12:42:20.275, 1587811340275
12, 1152.35, 490.71, 622.62, 836.85, 0.032, 0.000, -1.040, 12:42:20.275, 1587811340275
13, 1141.75, 492.84, 621.55, 860.78, 0.032, 0.000, -1.040, 12:42:20.288, 1587811340288
14, 1108.98, 454.51, 608.83, 868.52, 0.032, 0.000, -1.040, 12:42:20.288, 1587811340288
15, 1115.65, 463.05, 621.43, 854.31, 0.032, 0.000, -1.040, 12:42:20.304, 1587811340304
16, 1153.27, 498.13, 633.90, 839.76, 0.032, 0.000, -1.040, 12:42:20.304, 1587811340304
17, 1150.43, 491.48, 613.06, 858.35, 0.032, 0.000, -1.040, 12:42:20.305, 1587811340305
18, 1112.93, 455.67, 610.12, 872.35, 0.032, 0.000, -1.040, 12:42:20.305, 1587811340305
19, 1122.84, 457.52, 619.31, 849.86, 0.032, 0.000, -1.040, 12:42:20.318, 1587811340318
20, 1153.32, 496.09, 624.41, 833.89, 0.032, 0.000, -1.040, 12:42:20.318, 1587811340318
21, 1155.01, 498.51, 617.41, 862.30, 0.032, 0.000, -1.040, 12:42:20.334, 1587811340334
22, 1114.15, 461.98, 611.75, 868.09, 0.032, 0.000, -1.040, 12:42:20.334, 1587811340334
23, 1114.19, 456.11, 616.63, 849.67, 0.032, 0.000, -1.040, 12:42:20.335, 1587811340335
24, 1142.05, 492.36, 616.36, 832.74, 0.032, 0.000, -1.040, 12:42:20.335, 1587811340335
25, 1144.56, 500.35, 619.84, 854.79, 0.032, 0.000, -1.040, 12:42:20.365, 1587811340365
26, 1109.47, 447.04, 591.72, 859.79, 0.032, 0.000, -1.040, 12:42:20.365, 1587811340365
27, 1115.58, 451.01, 613.15, 844.98, 0.032, 0.000, -1.040, 12:42:20.366, 1587811340366
28, 1156.13, 494.38, 622.40, 841.14, 0.032, 0.000, -1.040, 12:42:20.366, 1587811340366
29, 1146.40, 491.66, 610.25, 855.47, 0.032, 0.000, -1.040, 12:42:20.366, 1587811340366
30, 1110.59, 458.28, 605.30, 868.18, 0.032, 0.000, -1.040, 12:42:20.366, 1587811340366
31, 1114.38, 453.52, 613.57, 852.76, 0.032, 0.000, -1.040, 12:42:20.379, 1587811340379
32, 1157.29, 500.91, 630.92, 837.72, 0.032, 0.000, -1.040, 12:42:20.379, 1587811340379
33, 1148.65, 493.91, 610.24, 858.34, 0.032, 0.000, -1.040, 12:42:20.394, 1587811340394
34, 1120.74, 459.29, 614.01, 879.60, 0.032, 0.000, -1.040, 12:42:20.394, 1587811340394
35, 1121.85, 455.81, 610.90, 847.41, 0.032, 0.000, -1.040, 12:42:20.395, 1587811340395
36, 1141.31, 481.18, 610.72, 833.75, 0.032, 0.000, -1.040, 12:42:20.395, 1587811340395
37, 1142.43, 481.86, 597.74, 860.59, 0.032, 0.000, -1.040, 12:42:20.425, 1587811340425
38, 1111.06, 442.71, 600.10, 871.86, 0.032, 0.000, -1.040, 12:42:20.425, 1587811340425
39, 1120.16, 450.15, 608.44, 850.38, 0.032, 0.000, -1.040, 12:42:20.427, 1587811340427
40, 1161.79, 491.47, 620.67, 838.08, 0.032, 0.000, -1.040, 12:42:20.427, 1587811340427
41, 1153.78, 493.35, 611.57, 868.35, 0.032, 0.000, -1.040, 12:42:20.427, 1587811340427
42, 1115.65, 448.64, 597.91, 870.05, 0.032, 0.000, -1.040, 12:42:20.427, 1587811340427
43, 1130.79, 459.54, 623.65, 856.27, 0.032, 0.000, -1.040, 12:42:20.438, 1587811340438
44, 1148.16, 482.74, 608.48, 836.97, 0.032, 0.000, -1.040, 12:42:20.438, 1587811340438
45, 1148.25, 486.03, 606.34, 865.32, 0.032, 0.000, -1.040, 12:42:20.454, 1587811340454
46, 1113.08, 441.53, 595.15, 873.52, 0.032, 0.000, -1.040, 12:42:20.454, 1587811340454
47, 1109.56, 439.52, 602.15, 846.42, 0.032, 0.000, -1.040, 12:42:20.456, 1587811340456
48, 1137.93, 475.65, 603.87, 838.20, 0.032, 0.000, -1.040, 12:42:20.456, 1587811340456
49, 1144.08, 483.10, 597.57, 864.81, 0.032, 0.000, -1.040, 12:42:20.486, 1587811340486
50, 1101.40, 437.26, 586.59, 874.58, 0.032, 0.000, -1.040, 12:42:20.486, 1587811340486
51, 1111.91, 436.60, 594.45, 841.92, 0.032, 0.000, -1.040, 12:42:20.487, 1587811340487
52, 1142.19, 468.09, 600.51, 840.25, 0.032, 0.000, -1.040, 12:42:20.487, 1587811340487
53, 1132.70, 477.90, 591.98, 869.77, 0.032, 0.000, -1.040, 12:42:20.487, 1587811340487
54, 1106.41, 445.68, 595.34, 879.67, 0.032, 0.000, -1.040, 12:42:20.487, 1587811340487
55, 1103.42, 434.96, 594.93, 852.36, 0.032, 0.000, -1.040, 12:42:20.498, 1587811340498
56, 1148.13, 483.06, 604.54, 853.61, 0.032, 0.000, -1.040, 12:42:20.498, 1587811340498
57, 1147.55, 487.20, 599.17, 864.54, 0.032, 0.000, -1.040, 12:42:20.514, 1587811340514
58, 1108.85, 450.58, 595.51, 878.16, 0.032, 0.000, -1.040, 12:42:20.514, 1587811340514
59, 1112.59, 450.77, 607.14, 857.84, 0.032, 0.000, -1.040, 12:42:20.515, 1587811340515
60, 1145.39, 489.47, 614.42, 847.32, 0.032, 0.000, -1.040, 12:42:20.515, 1587811340515
61, 1143.04, 494.80, 603.60, 867.80, 0.032, 0.000, -1.040, 12:42:20.545, 1587811340545
62, 1118.76, 457.98, 601.73, 883.91, 0.032, 0.000, -1.040, 12:42:20.545, 1587811340545
63, 1111.11, 441.11, 598.77, 846.79, 0.032, 0.000, -1.040, 12:42:20.545, 1587811340545
64, 1149.42, 494.49, 622.83, 840.17, 0.032, 0.000, -1.040, 12:42:20.545, 1587811340545
65, 1147.85, 491.61, 608.09, 860.09, 0.032, 0.000, -1.040, 12:42:20.546, 1587811340546
66, 1114.85, 461.93, 603.16, 875.86, 0.032, 0.000, -1.040, 12:42:20.546, 1587811340546
67, 1116.73, 451.48, 611.08, 847.14, 0.032, 0.000, -1.040, 12:42:20.559, 1587811340559
68, 1150.06, 494.51, 609.70, 836.66, 0.032, 0.000, -1.040, 12:42:20.559, 1587811340559
69, 1157.92, 505.04, 619.39, 865.44, 0.032, 0.000, -1.040, 12:42:20.574, 1587811340574
70, 1113.89, 456.03, 603.31, 871.10, 0.032, 0.000, -1.040, 12:42:20.574, 1587811340574
71, 1126.74, 451.47, 604.74, 844.94, 0.032, 0.000, -1.040, 12:42:20.575, 1587811340575
72, 1151.94, 491.08, 615.49, 835.01, 0.032, 0.000, -1.040, 12:42:20.575, 1587811340575
73, 1147.13, 491.10, 606.69, 852.71, 0.032, 0.000, -1.040, 12:42:20.589, 1587811340589
74, 1107.67, 457.36, 600.97, 863.37, 0.032, 0.000, -1.040, 12:42:20.589, 1587811340589
75, 1119.45, 461.43, 611.12, 841.66, 0.032, 0.000, -1.040, 12:42:20.604, 1587811340604
76, 1159.55, 507.64, 624.85, 843.99, 0.032, 0.000, -1.040, 12:42:20.604, 1587811340604
77, 1155.70, 504.63, 607.87, 866.64, 0.032, 0.000, -1.040, 12:42:20.605, 1587811340605
78, 1105.62, 458.10, 597.71, 868.79, 0.032, 0.000, -1.040, 12:42:20.605, 1587811340605
79, 1119.06, 460.72, 612.50, 849.23, 0.032, 0.000, -1.040, 12:42:20.635, 1587811340635
80, 1146.76, 503.95, 621.76, 842.85, 0.032, 0.000, -1.040, 12:42:20.635, 1587811340635
81, 1142.67, 504.07, 611.99, 862.23, 0.032, 0.000, -1.040, 12:42:20.636, 1587811340636
82, 1104.75, 459.17, 595.25, 872.88, 0.032, 0.000, -1.040, 12:42:20.636, 1587811340636
83, 1123.86, 471.96, 626.60, 860.13, 0.032, 0.000, -1.040, 12:42:20.636, 1587811340636
84, 1146.07, 499.25, 622.37, 843.56, 0.032, 0.000, -1.040, 12:42:20.636, 1587811340636
85, 1141.11, 499.32, 614.86, 872.74, 0.032, 0.000, -1.040, 12:42:20.649, 1587811340649
86, 1112.06, 457.19, 605.32, 876.35, 0.032, 0.000, -1.040, 12:42:20.649, 1587811340649
87, 1106.86, 457.19, 611.93, 848.28, 0.032, 0.000, -1.040, 12:42:20.664, 1587811340664
88, 1155.45, 504.83, 624.76, 841.31, 0.032, 0.000, -1.040, 12:42:20.664, 1587811340664
89, 1153.00, 506.49, 620.54, 867.78, 0.032, 0.000, -1.040, 12:42:20.665, 1587811340665
90, 1117.85, 467.06, 615.86, 873.91, 0.032, 0.000, -1.040, 12:42:20.665, 1587811340665
91, 1112.35, 456.68, 615.80, 850.00, 0.032, 0.000, -1.040, 12:42:20.678, 1587811340678
92, 1148.27, 500.48, 626.77, 840.05, 0.032, 0.000, -1.040, 12:42:20.678, 1587811340678
93, 1139.77, 483.41, 604.66, 859.84, 0.032, 0.000, -1.040, 12:42:20.695, 1587811340695
94, 1108.82, 459.02, 617.38, 868.72, 0.032, 0.000, -1.040, 12:42:20.695, 1587811340695
95, 1122.26, 465.78, 618.18, 854.00, 0.032, 0.000, -1.040, 12:42:20.695, 1587811340695
96, 1159.88, 509.22, 634.18, 843.04, 0.032, 0.000, -1.040, 12:42:20.695, 1587811340695
97, 1161.36, 508.41, 632.36, 866.35, 0.032, 0.000, -1.040, 12:42:20.708, 1587811340708
98, 1124.02, 461.08, 623.57, 863.12, 0.032, 0.000, -1.040, 12:42:20.708, 1587811340708
99, 1126.93, 451.72, 619.10, 834.94, 0.032, 0.000, -1.040, 12:42:20.724, 1587811340724
100, 1160.26, 496.22, 625.34, 837.18, 0.032, 0.000, -1.040, 12:42:20.724, 1587811340724
101, 1160.61, 498.12, 618.62, 858.74, 0.032, 0.000, -1.040, 12:42:20.725, 1587811340725
102, 1119.05, 453.54, 611.22, 862.58, 0.032, 0.000, -1.040, 12:42:20.725, 1587811340725
103, 1124.97, 455.68, 620.60, 836.80, 0.032, 0.000, -1.040, 12:42:20.739, 1587811340739
104, 1156.22, 493.22, 625.39, 829.85, 0.032, 0.000, -1.040, 12:42:20.739, 1587811340739
105, 1157.83, 490.12, 612.06, 859.75, 0.032, 0.000, -1.040, 12:42:20.754, 1587811340754
106, 1116.91, 450.39, 609.39, 864.35, 0.032, 0.000, -1.024, 12:42:20.754, 1587811340754
107, 1121.81, 450.10, 617.46, 837.29, 0.032, 0.000, -1.024, 12:42:20.755, 1587811340755
108, 1164.74, 493.17, 634.35, 835.04, 0.032, 0.000, -1.024, 12:42:20.755, 1587811340755
109, 1162.19, 490.04, 623.85, 854.89, 0.032, 0.000, -1.024, 12:42:20.769, 1587811340769
110, 1121.51, 446.36, 612.05, 862.03, 0.032, 0.000, -1.024, 12:42:20.769, 1587811340769
111, 1123.58, 457.96, 630.24, 850.30, 0.032, 0.000, -1.024, 12:42:20.784, 1587811340784
112, 1153.33, 484.81, 623.90, 839.13, 0.032, 0.000, -1.024, 12:42:20.784, 1587811340784
113, 1146.93, 487.71, 620.10, 852.63, 0.032, 0.000, -1.024, 12:42:20.785, 1587811340785
114, 1114.77, 439.58, 600.82, 860.20, 0.032, 0.000, -1.024, 12:42:20.785, 1587811340785
115, 1123.31, 447.40, 620.25, 840.39, 0.032, 0.000, -1.024, 12:42:20.799, 1587811340799
116, 1161.70, 484.36, 626.59, 837.84, 0.032, 0.000, -1.024, 12:42:20.799, 1587811340799
117, 1151.94, 475.04, 606.89, 854.51, 0.032, 0.000, -1.024, 12:42:20.815, 1587811340815
118, 1103.48, 440.42, 601.68, 860.30, 0.032, 0.000, -1.024, 12:42:20.815, 1587811340815
119, 1106.74, 431.39, 603.03, 838.03, 0.032, 0.000, -1.024, 12:42:20.816, 1587811340816
120, 1150.28, 484.81, 625.15, 843.68, 0.032, 0.000, -1.024, 12:42:20.816, 1587811340816
121, 1142.88, 485.50, 613.71, 856.42, 0.032, 0.000, -1.024, 12:42:20.828, 1587811340828
122, 1110.30, 444.01, 606.83, 866.77, 0.032, 0.000, -1.024, 12:42:20.828, 1587811340828
123, 1108.08, 437.09, 599.96, 836.91, 0.032, 0.000, -1.024, 12:42:20.844, 1587811340844
124, 1153.48, 480.18, 620.08, 838.02, 0.032, 0.000, -1.024, 12:42:20.844, 1587811340844
125, 1147.90, 486.85, 615.21, 860.69, 0.032, 0.000, -1.024, 12:42:20.845, 1587811340845
126, 1111.00, 442.36, 598.61, 862.16, 0.032, 0.000, -1.024, 12:42:20.845, 1587811340845
127, 1117.24, 445.85, 611.75, 842.47, 0.032, 0.000, -1.024, 12:42:20.859, 1587811340859
128, 1160.58, 495.67, 636.07, 844.81, 0.032, 0.000, -1.024, 12:42:20.859, 1587811340859
129, 1146.57, 486.68, 615.84, 861.27, 0.032, 0.000, -1.024, 12:42:20.875, 1587811340875
130, 1113.49, 445.55, 602.08, 862.95, 0.032, 0.000, -1.024, 12:42:20.875, 1587811340875
131, 1129.55, 458.41, 624.00, 851.59, 0.032, 0.000, -1.024, 12:42:20.875, 1587811340875
132, 1161.24, 489.33, 625.31, 831.63, 0.032, 0.000, -1.024, 12:42:20.875, 1587811340875
133, 1157.12, 488.49, 617.17, 860.32, 0.032, 0.000, -1.024, 12:42:20.889, 1587811340889
134, 1107.92, 436.31, 593.37, 860.63, 0.032, 0.000, -1.024, 12:42:20.889, 1587811340889
135, 1111.07, 442.03, 609.98, 842.00, 0.032, 0.000, -1.024, 12:42:20.921, 1587811340921
136, 1147.08, 480.72, 619.28, 834.31, 0.032, 0.000, -1.024, 12:42:20.921, 1587811340921
137, 1153.71, 485.76, 617.14, 860.91, 0.032, 0.000, -1.024, 12:42:20.921, 1587811340921
138, 1108.76, 445.89, 599.62, 860.11, 0.032, 0.000, -1.024, 12:42:20.921, 1587811340921
139, 1114.56, 441.87, 608.54, 835.84, 0.032, 0.000, -1.024, 12:42:20.922, 1587811340922
140, 1156.39, 482.65, 618.14, 831.75, 0.032, 0.000, -1.024, 12:42:20.922, 1587811340922
141, 1141.79, 478.62, 608.23, 855.98, 0.032, 0.000, -1.024, 12:42:20.923, 1587811340923
142, 1110.14, 436.86, 594.17, 858.31, 0.032, 0.000, -1.024, 12:42:20.923, 1587811340923
143, 1114.05, 435.70, 601.34, 836.00, 0.032, 0.000, -1.024, 12:42:20.934, 1587811340934
144, 1151.20, 475.09, 609.33, 840.00, 0.032, 0.000, -1.024, 12:42:20.934, 1587811340934
145, 1155.43, 476.70, 605.82, 861.30, 0.032, 0.000, -1.024, 12:42:20.950, 1587811340950
146, 1102.32, 425.12, 582.00, 856.15, 0.032, 0.000, -1.024, 12:42:20.950, 1587811340950
147, 1113.27, 432.52, 599.87, 843.65, 0.032, 0.000, -1.024, 12:42:20.964, 1587811340964
148, 1148.41, 470.07, 603.74, 837.48, 0.032, 0.000, -1.024, 12:42:20.964, 1587811340964
149, 1151.55, 483.50, 609.31, 874.20, 0.032, 0.000, -1.024, 12:42:20.980, 1587811340980
150, 1117.53, 442.10, 605.19, 878.82, 0.032, 0.000, -1.024, 12:42:20.980, 1587811340980
151, 1112.95, 425.51, 596.18, 841.73, 0.032, 0.000, -1.024, 12:42:20.982, 1587811340982
152, 1142.49, 460.38, 600.10, 825.48, 0.032, 0.000, -1.024, 12:42:20.982, 1587811340982
153, 1140.16, 459.18, 590.42, 851.86, 0.032, 0.000, -1.024, 12:42:20.994, 1587811340994
154, 1099.01, 417.86, 577.21, 849.54, 0.032, 0.000, -1.024, 12:42:20.994, 1587811340994
155, 1106.15, 421.12, 590.51, 832.71, 0.032, 0.000, -1.024, 12:42:20.995, 1587811340995
156, 1135.85, 459.83, 600.63, 823.02, 0.032, 0.000, -1.024, 12:42:20.995, 1587811340995
157, 1139.77, 463.83, 587.18, 853.13, 0.032, 0.000, -1.024, 12:42:21.009, 1587811341009
158, 1098.83, 428.84, 589.62, 858.24, 0.032, 0.000, -1.024, 12:42:21.009, 1587811341009
159, 1107.18, 423.22, 590.17, 830.37, 0.032, 0.000, -1.024, 12:42:21.024, 1587811341024
160, 1151.15, 464.54, 602.60, 827.52, 0.032, 0.000, -1.024, 12:42:21.024, 1587811341024
161, 1160.31, 476.78, 600.61, 859.39, 0.032, 0.000, -1.024, 12:42:21.025, 1587811341025
162, 1108.54, 416.53, 580.56, 851.45, 0.032, 0.000, -1.024, 12:42:21.025, 1587811341025
163, 1119.33, 432.74, 598.59, 836.18, 0.032, 0.000, -1.024, 12:42:21.039, 1587811341039
164, 1156.67, 469.59, 604.90, 833.59, 0.032, 0.000, -1.024, 12:42:21.039, 1587811341039
165, 1143.49, 479.13, 604.01, 848.42, 0.032, 0.000, -1.024, 12:42:21.055, 1587811341055
166, 1109.04, 424.43, 579.62, 852.82, 0.032, 0.000, -1.024, 12:42:21.055, 1587811341055
167, 1114.05, 424.04, 591.22, 835.50, 0.032, 0.000, -1.024, 12:42:21.056, 1587811341056
168, 1147.38, 465.38, 604.49, 826.86, 0.032, 0.000, -1.024, 12:42:21.056, 1587811341056
169, 1153.40, 471.05, 599.94, 852.74, 0.032, 0.000, -1.024, 12:42:21.069, 1587811341069
170, 1108.73, 426.35, 587.33, 860.12, 0.032, 0.000, -1.024, 12:42:21.069, 1587811341069
171, 1112.93, 427.86, 598.39, 834.65, 0.032, 0.000, -1.024, 12:42:21.101, 1587811341101
172, 1161.13, 474.48, 611.46, 834.66, 0.032, 0.000, -1.024, 12:42:21.101, 1587811341101
173, 1150.07, 475.19, 602.18, 853.68, 0.032, 0.000, -1.024, 12:42:21.101, 1587811341101
174, 1107.80, 426.73, 585.31, 858.31, 0.032, 0.000, -1.024, 12:42:21.101, 1587811341101
175, 1113.33, 424.42, 595.30, 832.65, 0.032, 0.000, -1.024, 12:42:21.102, 1587811341102
176, 1148.21, 473.02, 609.36, 832.99, 0.032, 0.000, -1.024, 12:42:21.102, 1587811341102
177, 1140.43, 473.07, 601.79, 858.16, 0.032, 0.000, -1.024, 12:42:21.103, 1587811341103
178, 1110.81, 437.42, 592.28, 868.20, 0.032, 0.000, -1.024, 12:42:21.103, 1587811341103
179, 1113.87, 431.64, 600.58, 846.73, 0.032, 0.000, -1.024, 12:42:21.114, 1587811341114
180, 1154.82, 481.72, 617.09, 840.62, 0.032, 0.000, -1.024, 12:42:21.114, 1587811341114
181, 1155.62, 486.49, 606.59, 867.71, 0.032, 0.000, -1.024, 12:42:21.129, 1587811341129
182, 1117.07, 452.29, 603.96, 875.09, 0.032, 0.000, -1.024, 12:42:21.129, 1587811341129
183, 1123.36, 450.18, 607.07, 852.12, 0.032, 0.000, -1.024, 12:42:21.145, 1587811341145
184, 1168.10, 489.87, 619.16, 848.18, 0.032, 0.000, -1.024, 12:42:21.145, 1587811341145
185, 1151.82, 490.35, 607.31, 866.57, 0.032, 0.000, -1.024, 12:42:21.145, 1587811341145
186, 1112.61, 441.79, 595.86, 866.81, 0.032, 0.000, -1.040, 12:42:21.145, 1587811341145
187, 1121.97, 442.73, 607.14, 848.30, 0.032, 0.000, -1.040, 12:42:21.159, 1587811341159
188, 1157.08, 489.65, 619.20, 849.80, 0.032, 0.000, -1.040, 12:42:21.159, 1587811341159
189, 1151.49, 494.01, 608.98, 869.81, 0.032, 0.000, -1.040, 12:42:21.174, 1587811341174
190, 1117.74, 443.71, 593.92, 869.94, 0.032, 0.000, -1.040, 12:42:21.174, 1587811341174
191, 1116.15, 444.48, 606.59, 839.54, 0.032, 0.000, -1.040, 12:42:21.175, 1587811341175
192, 1164.13, 494.19, 622.65, 844.52, 0.032, 0.000, -1.040, 12:42:21.175, 1587811341175
193, 1147.55, 476.78, 595.55, 855.95, 0.032, 0.000, -1.040, 12:42:21.189, 1587811341189
194, 1111.07, 436.16, 587.09, 865.86, 0.032, 0.000, -1.040, 12:42:21.190, 1587811341190
195, 1116.33, 435.07, 596.45, 852.42, 0.032, 0.000, -1.040, 12:42:21.204, 1587811341204
196, 1155.13, 478.86, 610.23, 844.31, 0.032, 0.000, -1.040, 12:42:21.204, 1587811341204
197, 1151.32, 485.56, 601.95, 860.31, 0.032, 0.000, -1.040, 12:42:21.205, 1587811341205
198, 1115.17, 439.31, 590.20, 863.65, 0.032, 0.000, -1.040, 12:42:21.205, 1587811341205
199, 1120.59, 440.95, 603.97, 845.28, 0.032, 0.000, -1.040, 12:42:21.219, 1587811341219
200, 1155.69, 475.40, 607.97, 828.24, 0.032, 0.000, -1.040, 12:42:21.219, 1587811341219
0, 1149.19, 473.79, 594.50, 853.97, 0.032, 0.000, -1.040, 12:42:21.220, 1587811341220
1, 1112.99, 435.44, 588.82, 859.36, 0.032, 0.000, -1.040, 12:42:21.250, 1587811341250
2, 1108.95, 427.16, 592.45, 842.75, 0.032, 0.000, -1.040, 12:42:21.250, 1587811341250
3, 1153.94, 472.62, 607.13, 837.57, 0.032, 0.000, -1.040, 12:42:21.250, 1587811341250
4, 1152.88, 480.49, 602.25, 858.79, 0.032, 0.000, -1.040, 12:42:21.250, 1587811341250
5, 1114.56, 439.55, 591.30, 867.46, 0.032, 0.000, -1.040, 12:42:21.251, 1587811341251
6, 1113.11, 431.89, 595.34, 841.25, 0.032, 0.000, -1.040, 12:42:21.251, 1587811341251
7, 1163.30, 485.38, 617.04, 845.33, 0.032, 0.000, -1.040, 12:42:21.264, 1587811341264
8, 1146.63, 475.65, 594.54, 861.31, 0.032, 0.000, -1.040, 12:42:21.264, 1587811341264
9, 1112.98, 432.89, 585.09, 858.63, 0.032, 0.000, -1.040, 12:42:21.280, 1587811341280
10, 1117.96, 429.23, 596.31, 837.63, 0.032, 0.000, -1.040, 12:42:21.280, 1587811341280
11, 1158.35, 475.71, 608.65, 833.43, 0.032, 0.000, -1.040, 12:42:21.280, 1587811341280
12, 1151.02, 477.60, 599.85, 857.79, 0.032, 0.000, -1.040, 12:42:21.280, 1587811341280
13, 1115.70, 431.54, 585.04, 863.36, 0.032, 0.000, -1.040, 12:42:21.294, 1587811341294
14, 1109.14, 421.31, 591.29, 833.25, 0.032, 0.000, -1.040, 12:42:21.294, 1587811341294
15, 1147.39, 472.56, 605.67, 839.90, 0.032, 0.000, -1.040, 12:42:21.310, 1587811341310
16, 1159.25, 490.58, 606.40, 861.98, 0.032, 0.000, -1.040, 12:42:21.310, 1587811341310
17, 1111.66, 432.42, 584.02, 862.84, 0.032, 0.000, -1.040, 12:42:21.310, 1587811341310
18, 1115.82, 428.67, 594.22, 847.44, 0.032, 0.000, -1.040, 12:42:21.310, 1587811341310
19, 1158.71, 477.40, 608.83, 839.20, 0.032, 0.000, -1.040, 12:42:21.324, 1587811341324
20, 1150.48, 480.87, 598.90, 864.23, 0.032, 0.000, -1.040, 12:42:21.324, 1587811341324
21, 1117.70, 446.55, 597.88, 878.36, 0.032, 0.000, -1.040, 12:42:21.339, 1587811341339
22, 1116.06, 439.51, 604.38, 852.15, 0.032, 0.000, -1.040, 12:42:21.339, 1587811341339
23, 1157.50, 478.30, 610.42, 838.12, 0.032, 0.000, -1.040, 12:42:21.340, 1587811341340
24, 1159.16, 484.56, 604.21, 868.66, 0.032, 0.000, -1.040, 12:42:21.340, 1587811341340
25, 1120.85, 443.70, 597.48, 879.40, 0.032, 0.000, -1.040, 12:42:21.370, 1587811341370
26, 1122.12, 437.41, 604.90, 855.07, 0.048, 0.000, -1.040, 12:42:21.370, 1587811341370
27, 1153.13, 472.70, 609.61, 840.84, 0.048, 0.000, -1.040, 12:42:21.371, 1587811341371
28, 1147.63, 470.56, 593.61, 864.99, 0.048, 0.000, -1.040, 12:42:21.371, 1587811341371
29, 1119.95, 438.15, 594.46, 873.64, 0.048, 0.000, -1.040, 12:42:21.371, 1587811341371
30, 1121.64, 434.06, 604.38, 848.79, 0.048, 0.000, -1.040, 12:42:21.371, 1587811341371
31, 1162.93, 479.13, 613.82, 842.55, 0.048, 0.000, -1.040, 12:42:21.384, 1587811341384
32, 1158.60, 479.67, 607.29, 862.21, 0.048, 0.000, -1.040, 12:42:21.384, 1587811341384
33, 1108.44, 438.62, 593.54, 868.33, 0.048, 0.000, -1.040, 12:42:21.399, 1587811341399
34, 1113.80, 430.45, 598.24, 848.54, 0.048, 0.000, -1.040, 12:42:21.399, 1587811341399
35, 1154.60, 461.70, 601.01, 836.94, 0.048, 0.000, -1.040, 12:42:21.415, 1587811341415
36, 1140.31, 463.50, 586.77, 862.49, 0.048, 0.000, -1.040, 12:42:21.415, 1587811341415
37, 1109.36, 431.09, 585.37, 872.86, 0.048, 0.000, -1.040, 12:42:21.416, 1587811341416
38, 1122.98, 437.23, 603.80, 850.27, 0.048, 0.000, -1.040, 12:42:21.416, 1587811341416
39, 1159.82, 474.31, 610.98, 847.72, 0.048, 0.000, -1.040, 12:42:21.429, 1587811341429
40, 1152.42, 469.20, 604.11, 867.85, 0.048, 0.000, -1.040, 12:42:21.429, 1587811341429
41, 1112.16, 427.91, 590.87, 865.94, 0.048, 0.000, -1.040, 12:42:21.430, 1587811341430
42, 1125.84, 435.81, 604.41, 855.07, 0.048, 0.000, -1.040, 12:42:21.430, 1587811341430
43, 1158.11, 470.39, 610.71, 845.29, 0.048, 0.000, -1.040, 12:42:21.444, 1587811341444
44, 1142.43, 473.69, 601.36, 863.42, 0.048, 0.000, -1.040, 12:42:21.444, 1587811341444
45, 1114.19, 435.52, 588.50, 867.28, 0.048, 0.000, -1.040, 12:42:21.459, 1587811341459
46, 1120.70, 435.37, 603.17, 848.85, 0.048, 0.000, -1.040, 12:42:21.459, 1587811341459
47, 1159.40, 469.90, 610.92, 837.61, 0.048, 0.000, -1.040, 12:42:21.474, 1587811341474
48, 1155.77, 481.96, 611.91, 868.20, 0.048, 0.000, -1.040, 12:42:21.474, 1587811341474
49, 1122.19, 441.48, 600.57, 874.59, 0.048, 0.000, -1.040, 12:42:21.475, 1587811341475
50, 1126.08, 446.59, 613.89, 855.78, 0.048, 0.000, -1.040, 12:42:21.475, 1587811341475
51, 1168.59, 486.76, 628.65, 848.68, 0.048, 0.000, -1.040, 12:42:21.490, 1587811341490
52, 1163.17, 490.90, 618.59, 871.64, 0.048, 0.000, -1.040, 12:42:21.490, 1587811341490
53, 1127.78, 444.30, 608.31, 879.89, 0.048, 0.000, -1.040, 12:42:21.491, 1587811341491
54, 1123.53, 436.99, 609.51, 845.29, 0.048, 0.000, -1.040, 12:42:21.491, 1587811341491
55, 1159.58, 477.29, 614.41, 839.12, 0.048, 0.000, -1.040, 12:42:21.504, 1587811341504
56, 1153.25, 478.41, 608.75, 864.94, 0.048, 0.000, -1.040, 12:42:21.504, 1587811341504
57, 1123.19, 434.94, 597.23, 878.86, 0.048, 0.000, -1.040, 12:42:21.536, 1587811341536
58, 1116.20, 436.32, 609.13, 850.99, 0.048, 0.000, -1.040, 12:42:21.536, 1587811341536
59, 1159.30, 476.86, 615.56, 842.20, 0.048, 0.000, -1.040, 12:42:21.536, 1587811341536
60, 1153.29, 478.08, 607.62, 860.20, 0.048, 0.000, -1.040, 12:42:21.536, 1587811341536
61, 1117.70, 438.61, 599.44, 865.75, 0.048, 0.000, -1.040, 12:42:21.537, 1587811341537
62, 1122.85, 431.21, 609.57, 845.76, 0.048, 0.000, -1.040, 12:42:21.537, 1587811341537
63, 1160.21, 470.29, 621.11, 842.84, 0.048, 0.000, -1.040, 12:42:21.538, 1587811341538
64, 1149.12, 469.96, 599.31, 865.79, 0.048, 0.000, -1.040, 12:42:21.538, 1587811341538
65, 1119.43, 431.12, 594.10, 872.28, 0.048, 0.000, -1.040, 12:42:21.549, 1587811341549
66, 1122.23, 432.22, 608.56, 855.71, 0.048, 0.000, -1.040, 12:42:21.549, 1587811341549
67, 1168.95, 482.68, 624.03, 848.29, 0.048, 0.000, -1.040, 12:42:21.564, 1587811341564
68, 1151.67, 473.19, 607.60, 863.02, 0.048, 0.000, -1.040, 12:42:21.564, 1587811341564
69, 1110.61, 430.97, 592.76, 867.54, 0.048, 0.000, -1.040, 12:42:21.597, 1587811341597
70, 1117.06, 432.53, 609.61, 843.65, 0.048, 0.000, -1.040, 12:42:21.597, 1587811341597
71, 1164.49, 477.64, 624.99, 844.41, 0.048, 0.000, -1.040, 12:42:21.598, 1587811341598
72, 1156.45, 477.00, 613.37, 854.52, 0.048, 0.000, -1.040, 12:42:21.598, 1587811341598
73, 1109.29, 427.74, 595.90, 866.84, 0.048, 0.000, -1.040, 12:42:21.598, 1587811341598
74, 1127.31, 433.63, 614.07, 845.08, 0.048, 0.000, -1.040, 12:42:21.598, 1587811341598
75, 1158.29, 473.85, 618.34, 847.60, 0.048, 0.000, -1.040, 12:42:21.598, 1587811341598
76, 1157.12, 474.22, 611.74, 868.57, 0.048, 0.000, -1.040, 12:42:21.598, 1587811341598
77, 1115.67, 435.25, 604.09, 865.17, 0.048, 0.000, -1.040, 12:42:21.609, 1587811341609
78, 1118.49, 434.18, 614.43, 845.10, 0.048, 0.000, -1.040, 12:42:21.609, 1587811341609
79, 1165.81, 479.58, 631.90, 843.22, 0.048, 0.000, -1.040, 12:42:21.623, 1587811341623
80, 1164.00, 482.10, 616.07, 857.31, 0.048, 0.000, -1.040, 12:42:21.623, 1587811341623
81, 1120.92, 446.84, 614.44, 878.15, 0.048, 0.000, -1.040, 12:42:21.639, 1587811341639
82, 1110.91, 428.51, 599.63, 844.81, 0.048, 0.000, -1.040, 12:42:21.639, 1587811341639
83, 1154.32, 473.79, 615.88, 838.19, 0.048, 0.000, -1.040, 12:42:21.640, 1587811341640
84, 1150.85, 484.76, 616.94, 862.57, 0.048, 0.000, -1.040, 12:42:21.640, 1587811341640
85, 1104.65, 435.17, 597.58, 861.81, 0.048, 0.000, -1.040, 12:42:21.654, 1587811341654
86, 1124.46, 444.82, 620.53, 852.05, 0.032, 0.000, -1.040, 12:42:21.654, 1587811341654
87, 1158.49, 473.24, 622.12, 828.45, 0.032, 0.000, -1.040, 12:42:21.670, 1587811341670
88, 1144.18, 467.65, 605.82, 854.15, 0.032, 0.000, -1.040, 12:42:21.670, 1587811341670
89, 1113.54, 425.31, 597.42, 858.90, 0.032, 0.000, -1.040, 12:42:21.671, 1587811341671
90, 1109.54, 421.77, 601.45, 837.17, 0.032, 0.000, -1.040, 12:42:21.671, 1587811341671
91, 1158.90, 472.76, 621.65, 836.77, 0.032, 0.000, -1.040, 12:42:21.684, 1587811341684
92, 1149.23, 476.95, 613.74, 859.13, 0.032, 0.000, -1.040, 12:42:21.684, 1587811341684
93, 1115.06, 439.17, 603.63, 864.52, 0.032, 0.000, -1.040, 12:42:21.700, 1587811341700
94, 1120.98, 439.03, 616.92, 845.94, 0.032, 0.000, -1.040, 12:42:21.700, 1587811341700
95, 1156.30, 473.08, 618.32, 833.61, 0.032, 0.000, -1.040, 12:42:21.701, 1587811341701
96, 1153.16, 482.07, 617.10, 866.05, 0.032, 0.000, -1.040, 12:42:21.701, 1587811341701
97, 1101.88, 424.88, 592.04, 863.71, 0.032, 0.000, -1.040, 12:42:21.714, 1587811341714
98, 1115.23, 420.36, 605.45, 846.49, 0.032, 0.000, -1.040, 12:42:21.714, 1587811341714
99, 1144.51, 447.65, 603.83, 829.10, 0.032, 0.000, -1.040, 12:42:21.729, 1587811341729
100, 1139.20, 450.03, 595.21, 843.54, 0.032, 0.000, -1.040, 12:42:21.729, 1587811341729
101, 1108.63, 428.49, 597.76, 863.59, 0.032, 0.000, -1.040, 12:42:21.730, 1587811341730
102, 1110.58, 429.27, 614.56, 841.57, 0.032, 0.000, -1.040, 12:42:21.730, 1587811341730
103, 1154.73, 462.38, 613.74, 829.35, 0.032, 0.000, -1.040, 12:42:21.744, 1587811341744
104, 1148.26, 465.04, 612.18, 860.34, 0.032, 0.000, -1.040, 12:42:21.744, 1587811341744
105, 1109.81, 428.87, 605.60, 866.35, 0.032, 0.000, -1.040, 12:42:21.759, 1587811341759
106, 1116.54, 431.36, 615.61, 850.44, 0.032, 0.000, -1.040, 12:42:21.759, 1587811341759
107, 1154.61, 476.84, 629.28, 844.23, 0.032, 0.000, -1.040, 12:42:21.760, 1587811341760
108, 1159.05, 482.35, 623.91, 870.14, 0.032, 0.000, -1.040, 12:42:21.760, 1587811341760
109, 1107.06, 433.72, 605.65, 867.70, 0.032, 0.000, -1.040, 12:42:21.774, 1587811341774
110, 1117.64, 434.98, 611.66, 850.10, 0.032, 0.000, -1.040, 12:42:21.774, 1587811341774
111, 1161.03, 485.89, 629.62, 850.39, 0.032, 0.000, -1.040, 12:42:21.789, 1587811341789
112, 1143.67, 471.04, 610.01, 855.92, 0.032, 0.000, -1.040, 12:42:21.789, 1587811341789
113, 1112.44, 430.56, 601.33, 863.76, 0.032, 0.000, -1.040, 12:42:21.790, 1587811341790
114, 1116.53, 431.78, 615.70, 841.50, 0.032, 0.000, -1.040, 12:42:21.790, 1587811341790
115, 1139.90, 465.28, 617.91, 831.41, 0.032, 0.000, -1.040, 12:42:21.804, 1587811341804
116, 1144.30, 468.66, 610.57, 854.57, 0.032, 0.000, -1.040, 12:42:21.804, 1587811341804
117, 1109.01, 429.64, 599.35, 861.38, 0.032, 0.000, -1.040, 12:42:21.819, 1587811341819
118, 1109.55, 419.80, 604.38, 840.59, 0.032, 0.000, -1.040, 12:42:21.819, 1587811341819
119, 1151.51, 465.54, 620.62, 836.28, 0.032, 0.000, -1.040, 12:42:21.820, 1587811341820
120, 1143.88, 468.57, 607.11, 850.40, 0.032, 0.000, -1.040, 12:42:21.820, 1587811341820
121, 1106.86, 429.42, 598.37, 863.66, 0.032, 0.000, -1.040, 12:42:21.834, 1587811341834
122, 1110.51, 432.46, 613.63, 847.67, 0.032, 0.000, -1.040, 12:42:21.834, 1587811341834
123, 1154.37, 478.16, 632.05, 837.41, 0.032, 0.000, -1.040, 12:42:21.866, 1587811341866
124, 1150.62, 477.45, 612.70, 862.33, 0.032, 0.000, -1.040, 12:42:21.866, 1587811341866
125, 1108.59, 426.89, 595.11, 864.46, 0.032, 0.000, -1.040, 12:42:21.866, 1587811341866
126, 1109.10, 421.36, 604.90, 831.74, 0.032, 0.000, -1.040, 12:42:21.866, 1587811341866
127, 1148.61, 465.92, 617.15, 832.15, 0.032, 0.000, -1.040, 12:42:21.867, 1587811341867
128, 1141.57, 473.96, 610.06, 859.83, 0.032, 0.000, -1.040, 12:42:21.867, 1587811341867
129, 1104.37, 431.80, 598.56, 867.19, 0.032, 0.000, -1.040, 12:42:21.868, 1587811341868
130, 1112.23, 432.58, 615.71, 848.75, 0.032, 0.000, -1.040, 12:42:21.868, 1587811341868
131, 1153.04, 482.45, 632.85, 844.39, 0.032, 0.000, -1.040, 12:42:21.879, 1587811341879
132, 1141.17, 474.67, 613.16, 859.16, 0.032, 0.000, -1.040, 12:42:21.879, 1587811341879
133, 1096.59, 433.79, 607.70, 871.15, 0.032, 0.000, -1.040, 12:42:21.894, 1587811341894
134, 1108.49, 437.50, 624.16, 849.63, 0.032, 0.000, -1.040, 12:42:21.894, 1587811341894
135, 1153.29, 477.86, 628.10, 846.03, 0.032, 0.000, -1.040, 12:42:21.909, 1587811341909
136, 1157.78, 487.87, 625.08, 865.01, 0.032, 0.000, -1.040, 12:42:21.909, 1587811341909
137, 1111.97, 437.35, 604.35, 868.78, 0.032, 0.000, -1.040, 12:42:21.924, 1587811341924
138, 1119.25, 443.68, 621.70, 851.05, 0.032, 0.000, -1.040, 12:42:21.924, 1587811341924
139, 1145.15, 477.53, 630.89, 840.94, 0.032, 0.000, -1.040, 12:42:21.925, 1587811341925
140, 1149.91, 484.77, 626.01, 866.80, 0.032, 0.000, -1.040, 12:42:21.925, 1587811341925
141, 1099.73, 423.56, 596.81, 856.72, 0.032, 0.000, -1.040, 12:42:21.939, 1587811341939
142, 1108.64, 434.98, 615.91, 845.94, 0.032, 0.000, -1.040, 12:42:21.939, 1587811341939
143, 1149.43, 474.64, 623.79, 836.36, 0.032, 0.000, -1.040, 12:42:21.940, 1587811341940
144, 1142.61, 474.61, 614.78, 863.35, 0.032, 0.000, -1.040, 12:42:21.940, 1587811341940
145, 1112.94, 437.77, 606.19, 871.17, 0.032, 0.000, -1.040, 12:42:21.954, 1587811341954
146, 1097.24, 426.57, 606.89, 840.89, 0.032, 0.000, -1.040, 12:42:21.954, 1587811341954
147, 1142.92, 467.09, 617.28, 833.73, 0.032, 0.000, -1.040, 12:42:21.969, 1587811341969
148, 1139.08, 472.71, 611.98, 858.81, 0.032, 0.000, -1.040, 12:42:21.969, 1587811341969
149, 1103.75, 431.04, 602.64, 867.14, 0.032, 0.000, -1.040, 12:42:21.970, 1587811341970
150, 1115.12, 435.87, 619.16, 844.13, 0.032, 0.000, -1.040, 12:42:21.970, 1587811341970
151, 1150.02, 477.00, 629.43, 841.67, 0.032, 0.000, -1.040, 12:42:21.984, 1587811341984
152, 1143.71, 475.09, 615.89, 863.23, 0.032, 0.000, -1.040, 12:42:21.984, 1587811341984
153, 1105.25, 433.98, 609.42, 866.29, 0.032, 0.000, -1.040, 12:42:21.999, 1587811341999
154, 1101.09, 424.34, 606.72, 841.40, 0.032, 0.000, -1.040, 12:42:21.999, 1587811341999
155, 1147.63, 472.33, 626.11, 841.83, 0.032, 0.000, -1.040, 12:42:22.000, 1587811342000
156, 1143.18, 470.71, 613.70, 861.85, 0.032, 0.000, -1.040, 12:42:22.000, 1587811342000
157, 1103.23, 434.34, 608.40, 867.19, 0.032, 0.000, -1.040, 12:42:22.031, 1587811342031
158, 1102.31, 433.84, 613.55, 847.84, 0.032, 0.000, -1.040, 12:42:22.031, 1587811342031
159, 1139.30, 468.41, 620.31, 834.52, 0.032, 0.000, -1.040, 12:42:22.031, 1587811342031
160, 1144.16, 471.83, 614.72, 857.75, 0.032, 0.000, -1.040, 12:42:22.031, 1587811342031
161, 1112.95, 436.92, 605.05, 870.69, 0.032, 0.000, -1.040, 12:42:22.032, 1587811342032
162, 1121.51, 444.74, 620.31, 846.59, 0.032, 0.000, -1.040, 12:42:22.032, 1587811342032
163, 1148.27, 479.20, 623.94, 834.38, 0.032, 0.000, -1.040, 12:42:22.043, 1587811342043
164, 1148.80, 480.82, 619.94, 859.68, 0.032, 0.000, -1.040, 12:42:22.043, 1587811342043
165, 1112.56, 438.30, 604.04, 863.78, 0.032, 0.000, -1.040, 12:42:22.059, 1587811342059
166, 1116.83, 438.26, 617.89, 842.93, 0.032, 0.000, -1.040, 12:42:22.059, 1587811342059
167, 1157.13, 478.99, 625.93, 836.08, 0.032, 0.000, -1.040, 12:42:22.060, 1587811342060
168, 1144.47, 472.52, 611.17, 848.89, 0.032, 0.000, -1.040, 12:42:22.060, 1587811342060
169, 1121.35, 440.95, 612.11, 871.84, 0.032, 0.000, -1.040, 12:42:22.091, 1587811342091
170, 1116.09, 434.08, 615.27, 842.32, 0.032, 0.000, -1.040, 12:42:22.091, 1587811342091
171, 1167.16, 484.11, 639.53, 850.31, 0.032, 0.000, -1.040, 12:42:22.091, 1587811342091
172, 1154.52, 480.38, 617.29, 854.78, 0.032, 0.000, -1.040, 12:42:22.091, 1587811342091
173, 1113.67, 441.68, 608.48, 867.24, 0.032, 0.000, -1.040, 12:42:22.092, 1587811342092
174, 1120.90, 433.42, 613.82, 844.08, 0.032, 0.000, -1.040, 12:42:22.092, 1587811342092
175, 1160.23, 474.50, 620.42, 839.90, 0.032, 0.000, -1.040, 12:42:22.104, 1587811342104
176, 1151.43, 474.37, 612.54, 866.57, 0.032, 0.000, -1.040, 12:42:22.104, 1587811342104
177, 1105.21, 429.44, 600.88, 870.68, 0.032, 0.000, -1.040, 12:42:22.119, 1587811342119
178, 1112.61, 435.03, 615.61, 845.16, 0.032, 0.000, -1.040, 12:42:22.119, 1587811342119
179, 1155.17, 477.96, 623.82, 839.90, 0.032, 0.000, -1.040, 12:42:22.120, 1587811342120
180, 1152.51, 476.35, 612.06, 854.57, 0.032, 0.000, -1.040, 12:42:22.120, 1587811342120
181, 1107.81, 432.81, 600.83, 872.29, 0.032, 0.000, -1.040, 12:42:22.134, 1587811342134
182, 1116.19, 431.27, 611.82, 848.37, 0.032, 0.000, -1.040, 12:42:22.134, 1587811342134
183, 1150.35, 463.47, 617.19, 838.40, 0.032, 0.000, -1.040, 12:42:22.149, 1587811342149
184, 1146.17, 469.23, 607.93, 860.72, 0.032, 0.000, -1.040, 12:42:22.149, 1587811342149
185, 1113.44, 435.94, 603.35, 873.38, 0.032, 0.000, -1.040, 12:42:22.150, 1587811342150
186, 1120.27, 436.73, 613.87, 845.48, 0.032, 0.000, -1.040, 12:42:22.150, 1587811342150
187, 1158.09, 475.29, 622.30, 839.80, 0.032, 0.000, -1.040, 12:42:22.165, 1587811342165
188, 1154.21, 479.12, 615.57, 868.03, 0.032, 0.000, -1.040, 12:42:22.165, 1587811342165
189, 1109.07, 430.87, 601.18, 868.36, 0.032, 0.000, -1.040, 12:42:22.179, 1587811342179
190, 1119.91, 430.03, 611.14, 844.93, 0.032, 0.000, -1.040, 12:42:22.179, 1587811342179
191, 1148.24, 472.35, 617.24, 838.65, 0.032, 0.000, -1.040, 12:42:22.180, 1587811342180
192, 1153.56, 477.76, 618.85, 860.31, 0.032, 0.000, -1.040, 12:42:22.180, 1587811342180
193, 1111.68, 437.00, 602.15, 866.73, 0.032, 0.000, -1.040, 12:42:22.210, 1587811342210
194, 1115.14, 439.51, 617.94, 850.77, 0.032, 0.000, -1.040, 12:42:22.210, 1587811342210
195, 1150.25, 478.02, 626.71, 842.50, 0.032, 0.000, -1.040, 12:42:22.211, 1587811342211
196, 1149.99, 478.07, 614.45, 853.00, 0.032, 0.000, -1.040, 12:42:22.211, 1587811342211
197, 1112.37, 431.69, 600.61, 871.70, 0.032, 0.000, -1.040, 12:42:22.211, 1587811342211
198, 1119.25, 435.59, 614.54, 843.11, 0.032, 0.000, -1.040, 12:42:22.211, 1587811342211
199, 1146.11, 478.71, 625.29, 842.06, 0.032, 0.000, -1.040, 12:42:22.225, 1587811342225
200, 1148.66, 479.92, 614.43, 862.00, 0.032, 0.000, -1.040, 12:42:22.225, 1587811342225
0, 1106.99, 428.70, 596.16, 864.06, 0.032, 0.000, -1.040, 12:42:22.225, 1587811342225
1, 1111.60, 434.18, 616.90, 845.08, 0.032, 0.000, -1.040, 12:42:22.239, 1587811342239
2, 1161.01, 473.94, 626.34, 849.96, 0.032, 0.000, -1.040, 12:42:22.239, 1587811342239
3, 1148.50, 472.70, 611.24, 864.88, 0.032, 0.000, -1.040, 12:42:22.254, 1587811342254
4, 1102.98, 430.22, 594.74, 863.58, 0.032, 0.000, -1.040, 12:42:22.254, 1587811342254
5, 1112.56, 423.16, 603.60, 839.63, 0.032, 0.000, -1.040, 12:42:22.255, 1587811342255
6, 1153.17, 467.74, 617.30, 839.09, 0.032, 0.000, -1.040, 12:42:22.255, 1587811342255
7, 1154.92, 473.81, 610.19, 863.24, 0.032, 0.000, -1.040, 12:42:22.269, 1587811342269
8, 1121.72, 432.70, 603.50, 875.52, 0.032, 0.000, -1.040, 12:42:22.269, 1587811342269
9, 1112.12, 423.25, 601.66, 847.58, 0.032, 0.000, -1.040, 12:42:22.284, 1587811342284
10, 1155.73, 477.29, 624.94, 841.41, 0.032, 0.000, -1.040, 12:42:22.284, 1587811342284
11, 1150.33, 475.44, 605.48, 856.69, 0.032, 0.000, -1.040, 12:42:22.285, 1587811342285
12, 1117.48, 438.13, 604.04, 865.89, 0.032, 0.000, -1.040, 12:42:22.285, 1587811342285
13, 1124.00, 439.21, 614.98, 848.00, 0.032, 0.000, -1.040, 12:42:22.299, 1587811342299
14, 1159.44, 484.81, 628.05, 851.05, 0.032, 0.000, -1.040, 12:42:22.299, 1587811342299
15, 1154.50, 486.50, 615.59, 867.40, 0.032, 0.000, -1.040, 12:42:22.314, 1587811342314
16, 1112.95, 443.80, 602.59, 877.74, 0.032, 0.000, -1.040, 12:42:22.314, 1587811342314
17, 1121.84, 436.11, 614.39, 848.01, 0.032, 0.000, -1.040, 12:42:22.315, 1587811342315
18, 1159.44, 481.06, 630.74, 840.65, 0.032, 0.000, -1.040, 12:42:22.315, 1587811342315
19, 1154.97, 478.53, 616.16, 856.76, 0.032, 0.000, -1.040, 12:42:22.329, 1587811342329
20, 1112.23, 438.03, 607.32, 866.42, 0.032, 0.000, -1.040, 12:42:22.329, 1587811342329
21, 1114.06, 435.53, 612.29, 839.85, 0.032, 0.000, -1.040, 12:42:22.345, 1587811342345
22, 1158.92, 486.26, 633.54, 842.92, 0.032, 0.000, -1.040, 12:42:22.345, 1587811342345
23, 1166.76, 490.03, 623.38, 864.78, 0.032, 0.000, -1.040, 12:42:22.345, 1587811342345
24, 1105.48, 434.74, 597.31, 860.96, 0.032, 0.000, -1.040, 12:42:22.345, 1587811342345
25, 1114.66, 430.59, 611.48, 841.47, 0.032, 0.000, -1.040, 12:42:22.359, 1587811342359
26, 1159.29, 481.39, 629.03, 840.00, 0.048, 0.000, -1.040, 12:42:22.359, 1587811342359
27, 1155.31, 480.39, 616.69, 865.91, 0.048, 0.000, -1.040, 12:42:22.374, 1587811342374
28, 1113.59, 436.08, 599.38, 857.70, 0.048, 0.000, -1.040, 12:42:22.374, 1587811342374
29, 1126.15, 447.66, 627.56, 852.89, 0.048, 0.000, -1.040, 12:42:22.375, 1587811342375
30, 1152.52, 482.23, 628.69, 841.56, 0.048, 0.000, -1.040, 12:42:22.375, 1587811342375
31, 1146.45, 482.86, 611.04, 857.33, 0.048, 0.000, -1.040, 12:42:22.389, 1587811342389
32, 1110.61, 435.46, 595.83, 866.96, 0.048, 0.000, -1.040, 12:42:22.389, 1587811342389
33, 1115.77, 440.82, 615.28, 845.14, 0.048, 0.000, -1.040, 12:42:22.404, 1587811342404
34, 1159.90, 483.73, 625.82, 844.12, 0.048, 0.000, -1.040, 12:42:22.404, 1587811342404
35, 1157.03, 490.60, 618.38, 869.21, 0.048, 0.000, -1.040, 12:42:22.405, 1587811342405
36, 1111.45, 435.68, 599.01, 871.08, 0.048, 0.000, -1.040, 12:42:22.405, 1587811342405
37, 1115.82, 433.96, 603.23, 843.63, 0.048, 0.000, -1.040, 12:42:22.419, 1587811342419
38, 1151.98, 477.06, 614.77, 839.61, 0.048, 0.000, -1.040, 12:42:22.419, 1587811342419
39, 1143.90, 472.86, 605.36, 861.24, 0.048, 0.000, -1.040, 12:42:22.434, 1587811342434
40, 1103.10, 424.95, 589.25, 862.18, 0.048, 0.000, -1.040, 12:42:22.434, 1587811342434
41, 1114.53, 428.90, 607.06, 848.11, 0.048, 0.000, -1.040, 12:42:22.435, 1587811342435
42, 1152.78, 472.07, 616.79, 832.22, 0.048, 0.000, -1.040, 12:42:22.435, 1587811342435
43, 1146.16, 475.98, 605.29, 853.65, 0.048, 0.000, -1.040, 12:42:22.449, 1587811342449
44, 1121.15, 442.42, 603.60, 872.26, 0.048, 0.000, -1.040, 12:42:22.449, 1587811342449
45, 1108.17, 429.96, 601.51, 834.40, 0.048, 0.000, -1.040, 12:42:22.464, 1587811342464
46, 1151.74, 477.73, 617.37, 838.95, 0.048, 0.000, -1.040, 12:42:22.464, 1587811342464
47, 1139.66, 473.65, 601.96, 862.00, 0.048, 0.000, -1.040, 12:42:22.465, 1587811342465
48, 1105.86, 436.17, 595.98, 861.53, 0.048, 0.000, -1.040, 12:42:22.465, 1587811342465
49, 1108.47, 430.53, 606.05, 844.79, 0.048, 0.000, -1.040, 12:42:22.479, 1587811342479
50, 1154.18, 481.18, 622.99, 844.93, 0.048, 0.000, -1.040, 12:42:22.479, 1587811342479
51, 1149.88, 483.31, 609.53, 861.78, 0.048, 0.000, -1.040, 12:42:22.495, 1587811342495
52, 1113.22, 435.42, 601.12, 869.01, 0.048, 0.000, -1.040, 12:42:22.495, 1587811342495
53, 1108.56, 434.52, 606.61, 845.48, 0.048, 0.000, -1.040, 12:42:22.495, 1587811342495
54, 1156.67, 476.68, 617.36, 842.24, 0.048, 0.000, -1.040, 12:42:22.495, 1587811342495
55, 1143.97, 476.97, 602.67, 858.72, 0.048, 0.000, -1.040, 12:42:22.509, 1587811342509
56, 1098.12, 431.01, 592.90, 862.89, 0.048, 0.000, -1.040, 12:42:22.509, 1587811342509
57, 1115.24, 433.43, 606.37, 850.88, 0.048, 0.000, -1.040, 12:42:22.525, 1587811342525
58, 1145.96, 474.14, 618.29, 832.85, 0.048, 0.000, -1.040, 12:42:22.525, 1587811342525
59, 1154.25, 482.13, 615.39, 866.50, 0.048, 0.000, -1.040, 12:42:22.526, 1587811342526
60, 1102.14, 433.56, 590.22, 866.31, 0.048, 0.000, -1.040, 12:42:22.526, 1587811342526
61, 1105.66, 428.90, 597.95, 839.75, 0.048, 0.000, -1.040, 12:42:22.539, 1587811342539
62, 1144.14, 472.50, 616.35, 831.84, 0.048, 0.000, -1.040, 12:42:22.539, 1587811342539
63, 1148.54, 481.18, 613.90, 863.98, 0.048, 0.000, -1.040, 12:42:22.556, 1587811342556
64, 1111.87, 441.40, 607.06, 867.14, 0.048, 0.000, -1.040, 12:42:22.556, 1587811342556
65, 1121.92, 439.06, 614.48, 844.26, 0.048, 0.000, -1.040, 12:42:22.556, 1587811342556
66, 1161.45, 482.91, 628.50, 842.38, 0.032, 0.000, -1.040, 12:42:22.556, 1587811342556
67, 1153.36, 481.78, 613.12, 864.61, 0.032, 0.000, -1.040, 12:42:22.569, 1587811342569
68, 1120.26, 444.69, 607.63, 875.23, 0.032, 0.000, -1.040, 12:42:22.569, 1587811342569
69, 1117.39, 437.14, 609.90, 848.15, 0.032, 0.000, -1.040, 12:42:22.585, 1587811342585
70, 1150.95, 475.20, 618.74, 835.06, 0.032, 0.000, -1.040, 12:42:22.585, 1587811342585
71, 1144.94, 481.83, 613.91, 864.38, 0.032, 0.000, -1.040, 12:42:22.585, 1587811342585
72, 1108.29, 437.35, 604.21, 869.09, 0.032, 0.000, -1.040, 12:42:22.585, 1587811342585
73, 1127.68, 441.44, 624.39, 857.49, 0.032, 0.000, -1.040, 12:42:22.600, 1587811342600
74, 1156.08, 474.41, 622.22, 842.40, 0.032, 0.000, -1.040, 12:42:22.600, 1587811342600
75, 1144.23, 472.37, 607.44, 870.54, 0.032, 0.000, -1.040, 12:42:22.614, 1587811342614
76, 1106.23, 437.12, 596.91, 869.57, 0.032, 0.000, -1.040, 12:42:22.614, 1587811342614
77, 1110.45, 437.62, 612.30, 850.34, 0.032, 0.000, -1.040, 12:42:22.615, 1587811342615
78, 1149.08, 472.83, 621.99, 843.19, 0.032, 0.000, -1.040, 12:42:22.615, 1587811342615
79, 1147.87, 474.68, 609.96, 866.59, 0.032, 0.000, -1.040, 12:42:22.645, 1587811342645
80, 1104.55, 434.42, 596.75, 866.26, 0.032, 0.000, -1.040, 12:42:22.645, 1587811342645
81, 1108.87, 429.95, 609.76, 842.43, 0.032, 0.000, -1.040, 12:42:22.646, 1587811342646
82, 1162.30, 483.00, 629.12, 848.25, 0.032, 0.000, -1.040, 12:42:22.646, 1587811342646
83, 1148.73, 479.09, 611.83, 863.77, 0.032, 0.000, -1.040, 12:42:22.646, 1587811342646
84, 1108.41, 436.55, 602.22, 871.47, 0.032, 0.000, -1.040, 12:42:22.646, 1587811342646
85, 1112.98, 432.46, 607.33, 844.74, 0.032, 0.000, -1.040, 12:42:22.659, 1587811342659
86, 1149.63, 475.43, 619.55, 850.00, 0.048, 0.000, -1.040, 12:42:22.659, 1587811342659
87, 1149.46, 482.27, 619.13, 879.16, 0.048, 0.000, -1.040, 12:42:22.675, 1587811342675
88, 1108.82, 432.78, 597.87, 876.70, 0.048, 0.000, -1.040, 12:42:22.675, 1587811342675
89, 1112.28, 433.78, 609.33, 848.25, 0.048, 0.000, -1.040, 12:42:22.675, 1587811342675
90, 1150.44, 479.41, 621.82, 842.58, 0.048, 0.000, -1.040, 12:42:22.675, 1587811342675
91, 1141.88, 481.81, 610.58, 859.96, 0.048, 0.000, -1.040, 12:42:22.689, 1587811342689
92, 1109.28, 439.60, 600.11, 877.01, 0.048, 0.000, -1.040, 12:42:22.689, 1587811342689
93, 1117.12, 433.30, 607.72, 855.10, 0.048, 0.000, -1.040, 12:42:22.705, 1587811342705
94, 1149.58, 473.01, 615.90, 846.36, 0.048, 0.000, -1.040, 12:42:22.705, 1587811342705
95, 1142.90, 473.65, 599.00, 859.66, 0.048, 0.000, -1.040, 12:42:22.706, 1587811342706
96, 1116.61, 437.54, 599.20, 876.37, 0.048, 0.000, -1.040, 12:42:22.706, 1587811342706
97, 1114.56, 440.00, 607.93, 853.42, 0.048, 0.000, -1.040, 12:42:22.719, 1587811342719
98, 1151.96, 479.13, 620.34, 847.90, 0.048, 0.000, -1.040, 12:42:22.719, 1587811342719
99, 1149.76, 487.33, 616.41, 876.50, 0.048, 0.000, -1.040, 12:42:22.734, 1587811342734
100, 1114.65, 441.67, 604.36, 874.18, 0.048, 0.000, -1.040, 12:42:22.734, 1587811342734
101, 1122.10, 439.55, 610.44, 850.33, 0.048, 0.000, -1.040, 12:42:22.735, 1587811342735
102, 1144.96, 486.89, 627.82, 849.34, 0.048, 0.000, -1.040, 12:42:22.735, 1587811342735
103, 1151.13, 484.55, 613.61, 869.67, 0.048, 0.000, -1.040, 12:42:22.749, 1587811342749
104, 1099.87, 438.03, 598.99, 879.81, 0.048, 0.000, -1.040, 12:42:22.749, 1587811342749
105, 1115.86, 442.09, 616.81, 855.95, 0.048, 0.000, -1.040, 12:42:22.765, 1587811342765
106, 1153.04, 483.17, 624.62, 852.16, 0.048, 0.000, -1.040, 12:42:22.765, 1587811342765
107, 1148.97, 483.89, 611.08, 868.04, 0.048, 0.000, -1.040, 12:42:22.765, 1587811342765
108, 1109.16, 446.20, 604.93, 875.85, 0.048, 0.000, -1.040, 12:42:22.765, 1587811342765
109, 1118.43, 440.76, 611.58, 858.78, 0.048, 0.000, -1.040, 12:42:22.780, 1587811342780
110, 1148.96, 480.05, 617.88, 847.36, 0.048, 0.000, -1.040, 12:42:22.780, 1587811342780
111, 1144.67, 488.81, 611.40, 875.12, 0.048, 0.000, -1.040, 12:42:22.794, 1587811342794
112, 1107.41, 444.46, 599.45, 872.47, 0.048, 0.000, -1.040, 12:42:22.794, 1587811342794
113, 1114.50, 447.89, 617.72, 854.57, 0.048, 0.000, -1.040, 12:42:22.795, 1587811342795
114, 1153.89, 488.09, 622.07, 842.01, 0.048, 0.000, -1.040, 12:42:22.795, 1587811342795
115, 1161.73, 495.31, 630.23, 877.68, 0.048, 0.000, -1.040, 12:42:22.809, 1587811342809
116, 1111.15, 446.00, 601.79, 876.71, 0.048, 0.000, -1.040, 12:42:22.809, 1587811342809
117, 1110.60, 441.44, 614.76, 851.67, 0.048, 0.000, -1.040, 12:42:22.824, 1587811342824
118, 1148.08, 478.66, 618.43, 846.80, 0.048, 0.000, -1.040, 12:42:22.824, 1587811342824
119, 1143.91, 482.78, 611.31, 868.31, 0.048, 0.000, -1.040, 12:42:22.825, 1587811342825
120, 1108.23, 446.71, 599.87, 873.90, 0.048, 0.000, -1.040, 12:42:22.825, 1587811342825
121, 1113.21, 440.70, 605.95, 848.98, 0.048, 0.000, -1.040, 12:42:22.839, 1587811342839
122, 1158.03, 489.78, 623.59, 853.52, 0.048, 0.000, -1.040, 12:42:22.839, 1587811342839
123, 1152.03, 499.07, 624.84, 877.47, 0.048, 0.000, -1.040, 12:42:22.855, 1587811342855
124, 1104.38, 443.66, 595.28, 874.44, 0.048, 0.000, -1.040, 12:42:22.855, 1587811342855
125, 1104.54, 441.17, 612.46, 856.43, 0.048, 0.000, -1.040, 12:42:22.856, 1587811342856
126, 1146.14, 489.39, 625.97, 852.34, 0.032, 0.000, -1.040, 12:42:22.856, 1587811342856
127, 1149.86, 494.84, 617.06, 873.31, 0.032, 0.000, -1.040, 12:42:22.869, 1587811342869
128, 1119.03, 449.01, 603.52, 880.18, 0.032, 0.000, -1.040, 12:42:22.869, 1587811342869
129, 1110.50, 441.30, 610.13, 847.58, 0.032, 0.000, -1.040, 12:42:22.885, 1587811342885
130, 1149.41, 484.92, 619.85, 835.85, 0.032, 0.000, -1.040, 12:42:22.885, 1587811342885
131, 1146.88, 488.43, 606.33, 862.10, 0.032, 0.000, -1.040, 12:42:22.886, 1587811342886
132, 1105.12, 443.92, 596.00, 865.90, 0.032, 0.000, -1.040, 12:42:22.886, 1587811342886
133, 1117.84, 444.83, 612.36, 850.49, 0.032, 0.000, -1.040, 12:42:22.899, 1587811342899
134, 1158.50, 488.44, 624.14, 844.76, 0.032, 0.000, -1.040, 12:42:22.899, 1587811342899
135, 1154.52, 496.21, 619.41, 874.07, 0.032, 0.000, -1.040, 12:42:22.914, 1587811342914
136, 1114.20, 446.30, 600.92, 873.76, 0.032, 0.000, -1.040, 12:42:22.914, 1587811342914
137, 1112.94, 444.42, 611.52, 852.37, 0.032, 0.000, -1.040, 12:42:22.916, 1587811342916
138, 1146.71, 483.59, 620.32, 846.72, 0.032, 0.000, -1.040, 12:42:22.916, 1587811342916
139, 1141.51, 483.26, 608.66, 862.49, 0.032, 0.000, -1.040, 12:42:22.930, 1587811342930
140, 1112.38, 447.32, 602.46, 871.25, 0.032, 0.000, -1.040, 12:42:22.930, 1587811342930
141, 1124.46, 450.57, 620.51, 857.20, 0.032, 0.000, -1.040, 12:42:22.944, 1587811342944
142, 1144.01, 478.03, 615.91, 839.19, 0.032, 0.000, -1.040, 12:42:22.944, 1587811342944
143, 1149.48, 491.17, 622.99, 872.04, 0.032, 0.000, -1.040, 12:42:22.945, 1587811342945
144, 1112.35, 441.53, 596.42, 880.62, 0.032, 0.000, -1.040, 12:42:22.945, 1587811342945
145, 1114.14, 453.56, 619.74, 855.97, 0.032, 0.000, -1.040, 12:42:22.960, 1587811342960
146, 1165.05, 497.06, 635.35, 854.22, 0.032, 0.000, -1.040, 12:42:22.960, 1587811342960
147, 1148.12, 493.14, 616.67, 868.17, 0.032, 0.000, -1.040, 12:42:22.974, 1587811342974
148, 1117.01, 445.60, 601.51, 874.27, 0.032, 0.000, -1.040, 12:42:22.974, 1587811342974
149, 1115.31, 445.05, 613.47, 850.96, 0.032, 0.000, -1.040, 12:42:22.975, 1587811342975
150, 1152.50, 479.19, 620.05, 840.66, 0.032, 0.000, -1.040, 12:42:22.975, 1587811342975
151, 1147.59, 490.33, 617.61, 867.90, 0.032, 0.000, -1.040, 12:42:22.990, 1587811342990
152, 1107.80, 443.45, 595.52, 866.85, 0.032, 0.000, -1.040, 12:42:22.990, 1587811342990
153, 1124.47, 447.08, 614.09, 858.42, 0.032, 0.000, -1.040, 12:42:23.004, 1587811343004
154, 1156.23, 493.61, 630.99, 855.41, 0.032, 0.000, -1.040, 12:42:23.004, 1587811343004
155, 1150.76, 490.53, 614.06, 871.75, 0.032, 0.000, -1.040, 12:42:23.005, 1587811343005
156, 1104.98, 444.57, 600.76, 872.51, 0.032, 0.000, -1.040, 12:42:23.005, 1587811343005
157, 1109.37, 441.04, 611.39, 849.89, 0.032, 0.000, -1.040, 12:42:23.019, 1587811343019
158, 1144.29, 481.01, 621.27, 839.05, 0.032, 0.000, -1.040, 12:42:23.019, 1587811343019
159, 1144.10, 486.85, 611.62, 866.29, 0.032, 0.000, -1.040, 12:42:23.034, 1587811343034
160, 1109.40, 445.26, 602.30, 873.78, 0.032, 0.000, -1.040, 12:42:23.034, 1587811343034
161, 1112.50, 442.12, 616.85, 851.99, 0.032, 0.000, -1.040, 12:42:23.035, 1587811343035
162, 1152.28, 476.64, 613.81, 840.20, 0.032, 0.000, -1.040, 12:42:23.035, 1587811343035
163, 1148.32, 487.37, 613.08, 873.37, 0.032, 0.000, -1.040, 12:42:23.049, 1587811343049
164, 1112.39, 441.53, 603.83, 879.59, 0.032, 0.000, -1.040, 12:42:23.049, 1587811343049
165, 1107.35, 441.53, 615.68, 850.68, 0.032, 0.000, -1.040, 12:42:23.065, 1587811343065
166, 1146.34, 477.90, 620.78, 848.24, 0.032, 0.000, -1.040, 12:42:23.065, 1587811343065
167, 1141.10, 481.77, 609.05, 874.45, 0.032, 0.000, -1.040, 12:42:23.067, 1587811343067
168, 1107.87, 445.57, 603.30, 875.87, 0.032, 0.000, -1.040, 12:42:23.067, 1587811343067
169, 1110.28, 437.47, 610.02, 849.56, 0.032, 0.000, -1.040, 12:42:23.079, 1587811343079
170, 1157.78, 484.65, 626.66, 849.86, 0.032, 0.000, -1.040, 12:42:23.079, 1587811343079
171, 1134.95, 470.94, 592.12, 852.80, 0.032, 0.000, -1.040, 12:42:23.094, 1587811343094
172, 1115.78, 437.07, 597.21, 879.04, 0.032, 0.000, -1.040, 12:42:23.094, 1587811343094
173, 1108.70, 441.28, 607.82, 856.23, 0.032, 0.000, -1.040, 12:42:23.095, 1587811343095
174, 1157.11, 489.52, 622.84, 851.29, 0.032, 0.000, -1.040, 12:42:23.095, 1587811343095
175, 1148.35, 491.71, 613.44, 874.57, 0.032, 0.000, -1.040, 12:42:23.109, 1587811343109
176, 1110.50, 444.49, 603.88, 877.49, 0.032, 0.000, -1.040, 12:42:23.109, 1587811343109
177, 1117.44, 437.44, 615.72, 851.86, 0.032, 0.000, -1.040, 12:42:23.141, 1587811343141
178, 1146.61, 472.00, 623.67, 840.04, 0.032, 0.000, -1.040, 12:42:23.141, 1587811343141
179, 1146.77, 477.47, 609.86, 867.37, 0.032, 0.000, -1.040, 12:42:23.141, 1587811343141
180, 1111.80, 436.26, 606.65, 876.33, 0.032, 0.000, -1.040, 12:42:23.141, 1587811343141
181, 1106.17, 424.78, 603.45, 849.19, 0.032, 0.000, -1.040, 12:42:23.142, 1587811343142
182, 1151.01, 476.01, 624.71, 847.17, 0.032, 0.000, -1.040, 12:42:23.142, 1587811343142
183, 1141.78, 475.85, 608.28, 875.55, 0.032, 0.000, -1.040, 12:42:23.143, 1587811343143
184, 1103.77, 435.45, 599.30, 884.89, 0.032, 0.000, -1.040, 12:42:23.143, 1587811343143
185, 1108.70, 429.15, 602.74, 853.57, 0.032, 0.000, -1.040, 12:42:23.154, 1587811343154
186, 1153.43, 467.22, 616.96, 847.79, 0.032, 0.000, -1.040, 12:42:23.154, 1587811343154
187, 1140.64, 460.19, 595.28, 864.80, 0.032, 0.000, -1.040, 12:42:23.170, 1587811343170
188, 1109.90, 426.61, 592.35, 874.92, 0.032, 0.000, -1.040, 12:42:23.170, 1587811343170
189, 1104.34, 418.94, 599.26, 841.02, 0.032, 0.000, -1.040, 12:42:23.184, 1587811343184
190, 1137.32, 467.62, 621.08, 836.65, 0.032, 0.000, -1.040, 12:42:23.184, 1587811343184
191, 1149.07, 484.18, 624.64, 878.21, 0.032, 0.000, -1.040, 12:42:23.199, 1587811343199
192, 1105.94, 435.18, 605.22, 868.98, 0.032, 0.000, -1.040, 12:42:23.199, 1587811343199
193, 1104.91, 427.85, 607.07, 845.35, 0.032, 0.000, -1.040, 12:42:23.200, 1587811343200
194, 1145.57, 473.87, 619.66, 838.09, 0.032, 0.000, -1.040, 12:42:23.200, 1587811343200
195, 1141.95, 476.64, 614.10, 858.35, 0.032, 0.000, -1.040, 12:42:23.214, 1587811343214
196, 1110.39, 446.03, 608.23, 880.48, 0.032, 0.000, -1.040, 12:42:23.214, 1587811343214
197, 1109.72, 430.14, 608.97, 851.94, 0.032, 0.000, -1.040, 12:42:23.215, 1587811343215
198, 1157.41, 482.36, 627.03, 854.61, 0.032, 0.000, -1.040, 12:42:23.215, 1587811343215
199, 1151.16, 487.07, 615.30, 877.17, 0.032, 0.000, -1.040, 12:42:23.229, 1587811343229
200, 1108.47, 436.87, 601.79, 882.41, 0.032, 0.000, -1.040, 12:42:23.229, 1587811343229
0, 1107.83, 432.60, 609.72, 852.45, 0.032, 0.000, -1.040, 12:42:23.230, 1587811343230
1, 1150.72, 476.71, 624.98, 848.62, 0.032, 0.000, -1.040, 12:42:23.260, 1587811343260
2, 1144.26, 481.86, 613.29, 874.92, 0.032, 0.000, -1.040, 12:42:23.260, 1587811343260
3, 1103.40, 439.92, 600.07, 877.78, 0.032, 0.000, -1.040, 12:42:23.260, 1587811343260
4, 1117.42, 441.88, 617.46, 868.17, 0.032, 0.000, -1.040, 12:42:23.260, 1587811343260
5, 1153.22, 476.64, 624.47, 853.09, 0.032, 0.000, -1.040, 12:42:23.262, 1587811343262
6, 1146.80, 484.24, 614.99, 882.09, 0.032, 0.000, -1.040, 12:42:23.262, 1587811343262
7, 1105.42, 436.07, 602.32, 882.61, 0.032, 0.000, -1.040, 12:42:23.274, 1587811343274
8, 1106.69, 429.46, 607.39, 856.96, 0.032, 0.000, -1.040, 12:42:23.274, 1587811343274
9, 1140.65, 473.24, 621.40, 848.27, 0.032, 0.000, -1.040, 12:42:23.289, 1587811343289
10, 1149.04, 487.44, 624.18, 887.29, 0.032, 0.000, -1.040, 12:42:23.289, 1587811343289
11, 1103.33, 440.33, 603.48, 883.96, 0.032, 0.000, -1.040, 12:42:23.290, 1587811343290
12, 1105.65, 435.03, 607.79, 856.16, 0.032, 0.000, -1.040, 12:42:23.290, 1587811343290
13, 1147.60, 475.92, 619.97, 853.42, 0.032, 0.000, -1.040, 12:42:23.304, 1587811343304
14, 1142.96, 479.37, 607.86, 872.49, 0.032, 0.000, -1.040, 12:42:23.304, 1587811343304
15, 1110.67, 439.09, 598.84, 882.03, 0.032, 0.000, -1.040, 12:42:23.319, 1587811343319
16, 1101.05, 436.57, 605.56, 854.52, 0.032, 0.000, -1.040, 12:42:23.319, 1587811343319
17, 1143.71, 480.96, 622.41, 852.19, 0.032, 0.000, -1.040, 12:42:23.321, 1587811343321
18, 1144.07, 488.25, 615.29, 877.28, 0.032, 0.000, -1.040, 12:42:23.321, 1587811343321
19, 1103.90, 445.56, 602.51, 883.55, 0.032, 0.000, -1.040, 12:42:23.334, 1587811343334
20, 1101.08, 432.29, 607.64, 862.34, 0.032, 0.000, -1.040, 12:42:23.334, 1587811343334
21, 1144.94, 483.39, 625.94, 858.68, 0.032, 0.000, -1.040, 12:42:23.350, 1587811343350
22, 1140.76, 484.17, 615.35, 882.31, 0.032, 0.000, -1.040, 12:42:23.350, 1587811343350
23, 1102.83, 440.08, 603.81, 893.04, 0.032, 0.000, -1.040, 12:42:23.351, 1587811343351
24, 1108.84, 438.23, 608.77, 862.96, 0.032, 0.000, -1.040, 12:42:23.351, 1587811343351
25, 1143.53, 484.41, 625.69, 859.58, 0.032, 0.000, -1.040, 12:42:23.364, 1587811343364
26, 1149.46, 492.62, 621.90, 888.40, 0.048, 0.000, -1.040, 12:42:23.364, 1587811343364
27, 1107.18, 447.96, 609.30, 885.15, 0.048, 0.000, -1.040, 12:42:23.379, 1587811343379
28, 1120.04, 451.86, 629.38, 871.08, 0.048, 0.000, -1.040, 12:42:23.379, 1587811343379
29, 1147.15, 490.59, 636.58, 855.18, 0.048, 0.000, -1.040, 12:42:23.380, 1587811343380
30, 1146.23, 494.18, 627.94, 876.41, 0.048, 0.000, -1.040, 12:42:23.380, 1587811343380
31, 1110.85, 452.45, 616.21, 885.11, 0.048, 0.000, -1.040, 12:42:23.394, 1587811343394
32, 1125.45, 458.38, 630.81, 870.37, 0.048, 0.000, -1.040, 12:42:23.394, 1587811343394
33, 1150.89, 486.91, 632.52, 855.35, 0.048, 0.000, -1.040, 12:42:23.409, 1587811343409
34, 1141.34, 489.62, 618.49, 871.68, 0.048, 0.000, -1.040, 12:42:23.409, 1587811343409
35, 1108.40, 445.02, 603.97, 880.97, 0.048, 0.000, -1.040, 12:42:23.410, 1587811343410
36, 1104.60, 440.79, 613.04, 863.01, 0.048, 0.000, -1.040, 12:42:23.410, 1587811343410
37, 1143.47, 482.38, 623.67, 849.67, 0.048, 0.000, -1.040, 12:42:23.425, 1587811343425
38, 1141.13, 485.08, 616.31, 877.09, 0.048, 0.000, -1.040, 12:42:23.425, 1587811343425
39, 1120.40, 466.10, 623.30, 900.41, 0.048, 0.000, -1.040, 12:42:23.439, 1587811343439
40, 1115.03, 451.26, 619.71, 860.74, 0.048, 0.000, -1.040, 12:42:23.439, 1587811343439
41, 1150.74, 486.33, 623.90, 845.96, 0.048, 0.000, -1.040, 12:42:23.440, 1587811343440
42, 1146.06, 489.55, 619.31, 872.32, 0.048, 0.000, -1.040, 12:42:23.440, 1587811343440
43, 1112.60, 448.57, 600.38, 876.88, 0.048, 0.000, -1.040, 12:42:23.454, 1587811343454
44, 1112.43, 446.22, 612.49, 850.89, 0.048, 0.000, -1.040, 12:42:23.454, 1587811343454
45, 1148.70, 491.50, 632.68, 854.73, 0.048, 0.000, -1.040, 12:42:23.469, 1587811343469
46, 1159.83, 498.68, 625.23, 875.83, 0.048, 0.000, -1.040, 12:42:23.469, 1587811343469
47, 1110.32, 449.16, 602.40, 883.43, 0.048, 0.000, -1.040, 12:42:23.470, 1587811343470
48, 1111.85, 447.27, 613.79, 857.69, 0.048, 0.000, -1.040, 12:42:23.470, 1587811343470
49, 1146.47, 484.25, 621.75, 855.18, 0.048, 0.000, -1.040, 12:42:23.484, 1587811343484
50, 1142.38, 491.48, 618.77, 872.68, 0.048, 0.000, -1.040, 12:42:23.484, 1587811343484
51, 1113.76, 451.66, 607.64, 885.85, 0.048, 0.000, -1.040, 12:42:23.500, 1587811343500
52, 1109.68, 445.31, 614.38, 857.27, 0.048, 0.000, -1.040, 12:42:23.500, 1587811343500
53, 1139.68, 475.48, 617.83, 835.28, 0.048, 0.000, -1.040, 12:42:23.501, 1587811343501
54, 1139.74, 481.90, 608.22, 868.61, 0.048, 0.000, -1.040, 12:42:23.501, 1587811343501
55, 1098.52, 439.66, 594.79, 872.27, 0.048, 0.000, -1.040, 12:42:23.514, 1587811343514
56, 1112.23, 439.19, 609.46, 856.43, 0.048, 0.000, -1.040, 12:42:23.514, 1587811343514
57, 1145.84, 481.80, 624.22, 850.49, 0.048, 0.000, -1.040, 12:42:23.530, 1587811343530
58, 1149.80, 493.22, 617.52, 871.45, 0.048, 0.000, -1.040, 12:42:23.530, 1587811343530
59, 1105.90, 447.24, 605.59, 877.15, 0.048, 0.000, -1.040, 12:42:23.531, 1587811343531
60, 1108.73, 440.31, 610.86, 851.55, 0.048, 0.000, -1.040, 12:42:23.531, 1587811343531
61, 1138.51, 481.59, 617.15, 841.36, 0.048, 0.000, -1.040, 12:42:23.544, 1587811343544
62, 1133.43, 472.90, 598.62, 857.98, 0.048, 0.000, -1.040, 12:42:23.544, 1587811343544
63, 1111.86, 449.32, 603.30, 878.18, 0.048, 0.000, -1.040, 12:42:23.560, 1587811343560
64, 1114.29, 453.54, 619.60, 868.01, 0.048, 0.000, -1.040, 12:42:23.560, 1587811343560
65, 1144.44, 484.74, 624.94, 848.94, 0.048, 0.000, -1.040, 12:42:23.561, 1587811343561
66, 1136.05, 481.89, 608.05, 860.82, 0.048, 0.000, -1.040, 12:42:23.561, 1587811343561
67, 1099.84, 442.45, 599.83, 870.11, 0.048, 0.000, -1.040, 12:42:23.574, 1587811343574
68, 1109.93, 440.34, 605.32, 854.84, 0.048, 0.000, -1.040, 12:42:23.574, 1587811343574
69, 1153.21, 482.14, 621.27, 843.57, 0.048, 0.000, -1.040, 12:42:23.589, 1587811343589
70, 1140.48, 485.51, 607.59, 861.02, 0.048, 0.000, -1.040, 12:42:23.589, 1587811343589
71, 1105.22, 440.00, 593.95, 868.84, 0.048, 0.000, -1.040, 12:42:23.590, 1587811343590
72, 1105.94, 434.09, 607.81, 842.71, 0.048, 0.000, -1.040, 12:42:23.590, 1587811343590
73, 1153.17, 480.81, 622.80, 845.61, 0.048, 0.000, -1.040, 12:42:23.605, 1587811343605
74, 1152.29, 490.06, 620.99, 869.62, 0.048, 0.000, -1.040, 12:42:23.605, 1587811343605
75, 1110.68, 443.14, 603.20, 877.42, 0.048, 0.000, -1.040, 12:42:23.619, 1587811343619
76, 1110.59, 440.41, 610.98, 852.77, 0.048, 0.000, -1.040, 12:42:23.619, 1587811343619
77, 1141.49, 480.05, 619.76, 845.19, 0.048, 0.000, -1.040, 12:42:23.620, 1587811343620
78, 1148.58, 488.58, 616.20, 865.87, 0.048, 0.000, -1.040, 12:42:23.620, 1587811343620
79, 1096.72, 435.71, 587.97, 868.64, 0.048, 0.000, -1.040, 12:42:23.635, 1587811343635
80, 1110.65, 432.54, 602.88, 850.11, 0.048, 0.000, -1.040, 12:42:23.635, 1587811343635
81, 1150.97, 473.98, 616.23, 842.54, 0.048, 0.000, -1.040, 12:42:23.649, 1587811343649
82, 1144.90, 482.60, 611.82, 863.42, 0.048, 0.000, -1.040, 12:42:23.649, 1587811343649
83, 1104.01, 445.18, 597.67, 869.89, 0.048, 0.000, -1.040, 12:42:23.650, 1587811343650
84, 1108.02, 434.94, 603.02, 844.21, 0.048, 0.000, -1.040, 12:42:23.650, 1587811343650
85, 1145.07, 471.92, 613.98, 834.97, 0.048, 0.000, -1.040, 12:42:23.664, 1587811343664
86, 1144.34, 486.87, 612.35, 866.93, 0.048, 0.000, -1.040, 12:42:23.664, 1587811343664
87, 1105.30, 440.83, 595.91, 876.30, 0.048, 0.000, -1.040, 12:42:23.680, 1587811343680
88, 1105.39, 444.07, 607.48, 854.65, 0.048, 0.000, -1.040, 12:42:23.680, 1587811343680
89, 1140.62, 481.84, 619.11, 843.01, 0.048, 0.000, -1.040, 12:42:23.694, 1587811343694
90, 1142.08, 485.39, 607.37, 869.62, 0.048, 0.000, -1.040, 12:42:23.694, 1587811343694
91, 1110.33, 447.69, 602.86, 879.83, 0.048, 0.000, -1.040, 12:42:23.695, 1587811343695
92, 1103.00, 434.04, 604.98, 846.25, 0.048, 0.000, -1.040, 12:42:23.695, 1587811343695
93, 1131.23, 469.16, 608.98, 833.84, 0.048, 0.000, -1.040, 12:42:23.710, 1587811343710
94, 1143.61, 480.24, 603.95, 862.84, 0.048, 0.000, -1.040, 12:42:23.710, 1587811343710
95, 1098.79, 434.44, 591.21, 869.36, 0.048, 0.000, -1.040, 12:42:23.711, 1587811343711
96, 1105.24, 429.34, 602.55, 844.90, 0.048, 0.000, -1.040, 12:42:23.711, 1587811343711
97, 1146.27, 473.66, 617.77, 840.39, 0.048, 0.000, -1.040, 12:42:23.724, 1587811343724
98, 1151.75, 484.98, 612.98, 867.51, 0.048, 0.000, -1.040, 12:42:23.724, 1587811343724
99, 1107.81, 449.02, 601.26, 875.01, 0.048, 0.000, -1.040, 12:42:23.739, 1587811343739
100, 1110.70, 447.37, 613.70, 851.98, 0.048, 0.000, -1.040, 12:42:23.739, 1587811343739
101, 1150.83, 483.75, 624.99, 842.57, 0.048, 0.000, -1.040, 12:42:23.755, 1587811343755
102, 1154.16, 494.33, 618.02, 869.66, 0.048, 0.000, -1.040, 12:42:23.755, 1587811343755
103, 1115.53, 454.82, 612.38, 881.45, 0.048, 0.000, -1.040, 12:42:23.756, 1587811343756
104, 1112.17, 447.90, 618.77, 857.81, 0.048, 0.000, -1.040, 12:42:23.756, 1587811343756
105, 1143.69, 480.79, 624.11, 844.64, 0.048, 0.000, -1.040, 12:42:23.769, 1587811343769
106, 1139.45, 482.00, 612.46, 868.09, 0.032, 0.000, -1.040, 12:42:23.769, 1587811343769
107, 1105.14, 446.88, 604.25, 874.92, 0.032, 0.000, -1.040, 12:42:23.770, 1587811343770
108, 1111.07, 444.52, 618.94, 850.87, 0.032, 0.000, -1.040, 12:42:23.770, 1587811343770
109, 1149.24, 491.30, 635.98, 849.81, 0.032, 0.000, -1.040, 12:42:23.785, 1587811343785
110, 1143.45, 487.02, 620.02, 871.09, 0.032, 0.000, -1.040, 12:42:23.785, 1587811343785
111, 1097.22, 441.78, 601.45, 871.61, 0.032, 0.000, -1.040, 12:42:23.816, 1587811343816
112, 1111.23, 445.30, 610.57, 855.57, 0.032, 0.000, -1.040, 12:42:23.816, 1587811343816
113, 1155.36, 494.03, 632.10, 849.14, 0.032, 0.000, -1.040, 12:42:23.817, 1587811343817
114, 1146.17, 484.52, 611.13, 864.78, 0.032, 0.000, -1.040, 12:42:23.817, 1587811343817
115, 1121.72, 459.66, 617.18, 888.65, 0.032, 0.000, -1.040, 12:42:23.819, 1587811343819
116, 1111.21, 449.48, 620.99, 854.56, 0.032, 0.000, -1.040, 12:42:23.819, 1587811343819
117, 1149.53, 487.78, 631.12, 842.74, 0.032, 0.000, -1.040, 12:42:23.819, 1587811343819
118, 1153.55, 495.81, 622.45, 870.89, 0.032, 0.000, -1.040, 12:42:23.819, 1587811343819
119, 1111.20, 453.76, 609.84, 878.65, 0.032, 0.000, -1.040, 12:42:23.829, 1587811343829
120, 1114.69, 440.96, 614.50, 846.72, 0.032, 0.000, -1.040, 12:42:23.829, 1587811343829
121, 1152.22, 481.12, 628.09, 837.52, 0.032, 0.000, -1.040, 12:42:23.844, 1587811343844
122, 1138.71, 487.62, 615.88, 861.17, 0.032, 0.000, -1.040, 12:42:23.844, 1587811343844
123, 1109.30, 451.53, 611.82, 873.10, 0.032, 0.000, -1.040, 12:42:23.860, 1587811343860
124, 1123.69, 452.29, 622.97, 861.31, 0.032, 0.000, -1.040, 12:42:23.860, 1587811343860
125, 1146.40, 485.16, 624.74, 846.09, 0.032, 0.000, -1.040, 12:42:23.861, 1587811343861
126, 1154.13, 490.91, 618.04, 873.76, 0.032, 0.000, -1.040, 12:42:23.861, 1587811343861
127, 1101.07, 440.63, 598.91, 873.67, 0.032, 0.000, -1.040, 12:42:23.874, 1587811343874
128, 1108.46, 439.90, 611.08, 854.15, 0.032, 0.000, -1.040, 12:42:23.874, 1587811343874
129, 1147.19, 483.22, 624.77, 844.30, 0.032, 0.000, -1.040, 12:42:23.889, 1587811343889
130, 1141.19, 479.16, 607.77, 865.08, 0.032, 0.000, -1.040, 12:42:23.889, 1587811343889
131, 1110.73, 445.39, 604.02, 876.88, 0.032, 0.000, -1.040, 12:42:23.890, 1587811343890
132, 1103.41, 433.38, 611.17, 844.96, 0.032, 0.000, -1.040, 12:42:23.890, 1587811343890
133, 1151.26, 486.14, 631.99, 852.88, 0.032, 0.000, -1.040, 12:42:23.904, 1587811343904
134, 1140.74, 483.19, 615.62, 862.97, 0.032, 0.000, -1.040, 12:42:23.904, 1587811343904
135, 1110.53, 446.33, 603.08, 873.06, 0.032, 0.000, -1.040, 12:42:23.920, 1587811343920
136, 1112.24, 443.42, 609.58, 854.75, 0.032, 0.000, -1.040, 12:42:23.920, 1587811343920
137, 1143.58, 480.92, 620.47, 846.62, 0.032, 0.000, -1.040, 12:42:23.921, 1587811343921
138, 1141.02, 477.41, 610.37, 868.65, 0.032, 0.000, -1.040, 12:42:23.921, 1587811343921
139, 1094.71, 426.11, 587.16, 870.97, 0.032, 0.000, -1.040, 12:42:23.935, 1587811343935
140, 1106.78, 430.36, 600.93, 845.09, 0.032, 0.000, -1.040, 12:42:23.935, 1587811343935
141, 1143.80, 477.30, 620.89, 836.53, 0.032, 0.000, -1.040, 12:42:23.949, 1587811343949
142, 1136.61, 468.44, 607.05, 852.73, 0.032, 0.000, -1.040, 12:42:23.949, 1587811343949
143, 1121.44, 454.58, 620.59, 864.89, 0.032, 0.000, -1.040, 12:42:23.950, 1587811343950
144, 1116.35, 448.48, 619.99, 845.51, 0.032, 0.000, -1.040, 12:42:23.950, 1587811343950
145, 1145.97, 475.50, 622.84, 835.76, 0.032, 0.000, -1.040, 12:42:23.965, 1587811343965
146, 1153.70, 488.19, 623.60, 855.62, 0.032, 0.000, -1.040, 12:42:23.965, 1587811343965
147, 1120.97, 460.62, 620.30, 872.62, 0.032, 0.000, -1.040, 12:42:23.979, 1587811343979
148, 1121.25, 443.78, 616.26, 846.68, 0.032, 0.000, -1.040, 12:42:23.979, 1587811343979
149, 1161.27, 488.74, 631.16, 847.27, 0.032, 0.000, -1.040, 12:42:23.980, 1587811343980
150, 1145.31, 477.75, 613.50, 860.98, 0.032, 0.000, -1.040, 12:42:23.980, 1587811343980
151, 1109.28, 441.78, 603.22, 871.43, 0.032, 0.000, -1.040, 12:42:23.994, 1587811343994
152, 1119.84, 440.88, 615.88, 853.66, 0.032, 0.000, -1.040, 12:42:23.994, 1587811343994
153, 1157.34, 471.56, 617.85, 849.00, 0.032, 0.000, -1.040, 12:42:24.009, 1587811344009
154, 1158.42, 482.39, 610.12, 866.70, 0.032, 0.000, -1.040, 12:42:24.009, 1587811344009
155, 1115.59, 442.85, 605.26, 873.86, 0.032, 0.000, -1.040, 12:42:24.010, 1587811344010
156, 1120.18, 440.15, 611.89, 855.09, 0.032, 0.000, -1.040, 12:42:24.010, 1587811344010
157, 1157.91, 475.52, 625.42, 841.51, 0.032, 0.000, -1.040, 12:42:24.024, 1587811344024
158, 1161.49, 494.97, 616.04, 874.53, 0.032, 0.000, -1.040, 12:42:24.024, 1587811344024
159, 1113.18, 440.33, 597.89, 876.13, 0.032, 0.000, -1.040, 12:42:24.040, 1587811344040
160, 1107.44, 429.30, 604.29, 850.81, 0.032, 0.000, -1.040, 12:42:24.040, 1587811344040
161, 1151.42, 481.52, 623.36, 848.21, 0.032, 0.000, -1.040, 12:42:24.041, 1587811344041
162, 1154.56, 485.01, 607.62, 870.29, 0.032, 0.000, -1.040, 12:42:24.041, 1587811344041
163, 1115.67, 442.29, 599.21, 871.72, 0.032, 0.000, -1.040, 12:42:24.054, 1587811344054
164, 1117.66, 436.91, 607.77, 846.63, 0.032, 0.000, -1.040, 12:42:24.054, 1587811344054
165, 1152.31, 475.94, 615.41, 838.28, 0.032, 0.000, -1.040, 12:42:24.069, 1587811344069
166, 1154.06, 484.98, 615.25, 868.72, 0.032, 0.000, -1.024, 12:42:24.069, 1587811344069
167, 1111.66, 446.30, 595.93, 877.30, 0.032, 0.000, -1.024, 12:42:24.070, 1587811344070
168, 1112.91, 442.17, 599.30, 847.52, 0.032, 0.000, -1.024, 12:42:24.070, 1587811344070
169, 1151.96, 487.64, 624.36, 851.83, 0.032, 0.000, -1.024, 12:42:24.084, 1587811344084
170, 1153.40, 489.78, 607.04, 865.99, 0.032, 0.000, -1.024, 12:42:24.084, 1587811344084
171, 1116.48, 446.38, 602.08, 873.03, 0.032, 0.000, -1.024, 12:42:24.100, 1587811344100
172, 1120.70, 453.28, 614.89, 857.23, 0.032, 0.000, -1.024, 12:42:24.100, 1587811344100
173, 1150.09, 485.15, 617.47, 843.89, 0.032, 0.000, -1.024, 12:42:24.100, 1587811344100
174, 1146.30, 491.09, 609.08, 865.88, 0.032, 0.000, -1.024, 12:42:24.100, 1587811344100
175, 1103.58, 453.50, 597.59, 865.71, 0.032, 0.000, -1.024, 12:42:24.114, 1587811344114
176, 1105.64, 446.39, 608.57, 846.80, 0.032, 0.000, -1.024, 12:42:24.114, 1587811344114
177, 1144.55, 485.45, 616.51, 843.27, 0.032, 0.000, -1.024, 12:42:24.130, 1587811344130
178, 1144.49, 490.89, 607.54, 863.09, 0.032, 0.000, -1.024, 12:42:24.130, 1587811344130
179, 1109.68, 445.53, 594.27, 870.62, 0.032, 0.000, -1.024, 12:42:24.130, 1587811344130
180, 1114.50, 442.19, 606.34, 850.18, 0.032, 0.000, -1.024, 12:42:24.130, 1587811344130
181, 1146.84, 488.74, 614.97, 846.72, 0.032, 0.000, -1.024, 12:42:24.144, 1587811344144
182, 1150.71, 492.38, 607.39, 873.22, 0.032, 0.000, -1.024, 12:42:24.144, 1587811344144
183, 1117.54, 457.58, 607.89, 881.80, 0.032, 0.000, -1.024, 12:42:24.159, 1587811344159
184, 1126.17, 455.88, 615.15, 863.83, 0.032, 0.000, -1.024, 12:42:24.159, 1587811344159
185, 1152.67, 483.52, 620.18, 838.53, 0.032, 0.000, -1.024, 12:42:24.160, 1587811344160
186, 1141.51, 493.60, 607.77, 864.85, 0.032, 0.000, -1.024, 12:42:24.160, 1587811344160
187, 1105.68, 444.30, 590.84, 872.96, 0.032, 0.000, -1.024, 12:42:24.174, 1587811344174
188, 1114.01, 444.41, 603.35, 855.93, 0.032, 0.000, -1.024, 12:42:24.174, 1587811344174
189, 1149.07, 489.35, 622.84, 847.27, 0.032, 0.000, -1.024, 12:42:24.190, 1587811344190
190, 1149.70, 490.95, 613.56, 866.97, 0.032, 0.000, -1.024, 12:42:24.190, 1587811344190
191, 1112.17, 454.13, 604.94, 879.06, 0.032, 0.000, -1.024, 12:42:24.191, 1587811344191
192, 1110.10, 443.94, 609.78, 848.45, 0.032, 0.000, -1.024, 12:42:24.191, 1587811344191
193, 1149.13, 487.69, 624.15, 844.31, 0.032, 0.000, -1.024, 12:42:24.204, 1587811344204
194, 1145.57, 490.38, 614.19, 865.12, 0.032, 0.000, -1.024, 12:42:24.204, 1587811344204
195, 1113.08, 453.34, 610.08, 879.34, 0.032, 0.000, -1.024, 12:42:24.220, 1587811344220
196, 1110.53, 445.83, 614.15, 857.33, 0.032, 0.000, -1.024, 12:42:24.220, 1587811344220
197, 1152.24, 492.53, 630.52, 855.92, 0.032, 0.000, -1.024, 12:42:24.220, 1587811344220
198, 1144.08, 488.73, 611.67, 864.35, 0.032, 0.000, -1.024, 12:42:24.220, 1587811344220
199, 1104.08, 447.62, 598.62, 876.30, 0.032, 0.000, -1.024, 12:42:24.234, 1587811344234
200, 1113.25, 444.05, 616.59, 857.89, 0.032, 0.000, -1.024, 12:42:24.234, 1587811344234
0, 1142.24, 484.31, 626.03, 845.20, 0.032, 0.000, -1.024, 12:42:24.235, 1587811344235
1, 1139.50, 486.58, 617.59, 869.67, 0.032, 0.000, -1.024, 12:42:24.249, 1587811344249
2, 1108.34, 445.88, 606.75, 876.05, 0.032, 0.000, -1.024, 12:42:24.249, 1587811344249
3, 1108.84, 442.91, 614.99, 851.96, 0.032, 0.000, -1.024, 12:42:24.265, 1587811344265
4, 1149.39, 486.70, 627.33, 849.61, 0.032, 0.000, -1.024, 12:42:24.265, 1587811344265
5, 1152.46, 500.57, 623.95, 877.70, 0.032, 0.000, -1.024, 12:42:24.266, 1587811344266
6, 1104.17, 437.26, 596.65, 870.29, 0.032, 0.000, -1.024, 12:42:24.266, 1587811344266
7, 1105.18, 442.88, 609.72, 852.41, 0.032, 0.000, -1.024, 12:42:24.279, 1587811344279
8, 1148.70, 483.94, 621.20, 849.22, 0.032, 0.000, -1.024, 12:42:24.279, 1587811344279
9, 1149.02, 490.52, 611.35, 873.93, 0.032, 0.000, -1.024, 12:42:24.311, 1587811344311
10, 1114.64, 452.14, 611.21, 881.59, 0.032, 0.000, -1.024, 12:42:24.311, 1587811344311
11, 1099.76, 434.68, 609.10, 856.44, 0.032, 0.000, -1.024, 12:42:24.311, 1587811344311
12, 1145.71, 482.72, 621.18, 845.81, 0.032, 0.000, -1.024, 12:42:24.311, 1587811344311
13, 1138.06, 485.48, 610.10, 870.73, 0.032, 0.000, -1.024, 12:42:24.312, 1587811344312
14, 1107.14, 446.26, 604.79, 873.26, 0.032, 0.000, -1.024, 12:42:24.312, 1587811344312
15, 1112.19, 441.68, 612.59, 853.58, 0.032, 0.000, -1.024, 12:42:24.313, 1587811344313
16, 1147.13, 486.19, 625.21, 849.52, 0.032, 0.000, -1.024, 12:42:24.313, 1587811344313
17, 1148.29, 492.72, 617.74, 871.74, 0.032, 0.000, -1.024, 12:42:24.324, 1587811344324
18, 1111.03, 444.90, 605.18, 879.15, 0.032, 0.000, -1.024, 12:42:24.324, 1587811344324
19, 1112.75, 442.78, 616.09, 852.68, 0.032, 0.000, -1.024, 12:42:24.340, 1587811344340
20, 1156.77, 495.70, 640.38, 856.61, 0.032, 0.000, -1.024, 12:42:24.340, 1587811344340
21, 1141.38, 486.45, 614.09, 861.64, 0.032, 0.000, -1.024, 12:42:24.354, 1587811344354
22, 1101.42, 440.52, 598.51, 867.91, 0.032, 0.000, -1.024, 12:42:24.354, 1587811344354
23, 1115.85, 452.98, 624.31, 858.75, 0.032, 0.000, -1.024, 12:42:24.355, 1587811344355
24, 1153.78, 493.50, 634.14, 850.77, 0.032, 0.000, -1.024, 12:42:24.355, 1587811344355
25, 1143.95, 485.59, 612.98, 869.30, 0.032, 0.000, -1.024, 12:42:24.369, 1587811344369
26, 1106.22, 453.43, 606.86, 882.46, 0.032, 0.000, -1.040, 12:42:24.369, 1587811344369
27, 1116.47, 442.33, 613.74, 853.32, 0.032, 0.000, -1.040, 12:42:24.384, 1587811344384
28, 1152.94, 485.91, 618.99, 845.33, 0.032, 0.000, -1.040, 12:42:24.384, 1587811344384
29, 1132.91, 481.25, 608.53, 861.79, 0.032, 0.000, -1.040, 12:42:24.385, 1587811344385
30, 1098.46, 438.29, 594.58, 870.36, 0.032, 0.000, -1.040, 12:42:24.385, 1587811344385
31, 1103.50, 434.88, 603.60, 841.04, 0.032, 0.000, -1.040, 12:42:24.399, 1587811344399
32, 1136.74, 484.84, 622.14, 840.40, 0.032, 0.000, -1.040, 12:42:24.399, 1587811344399
33, 1137.21, 482.35, 608.59, 865.22, 0.032, 0.000, -1.040, 12:42:24.414, 1587811344414
34, 1101.65, 443.14, 596.26, 871.34, 0.032, 0.000, -1.040, 12:42:24.414, 1587811344414
35, 1097.05, 432.99, 603.72, 847.38, 0.032, 0.000, -1.040, 12:42:24.415, 1587811344415
36, 1143.65, 481.28, 625.38, 850.60, 0.032, 0.000, -1.040, 12:42:24.415, 1587811344415
37, 1140.55, 483.28, 606.97, 860.48, 0.032, 0.000, -1.040, 12:42:24.429, 1587811344429
38, 1105.22, 448.07, 602.82, 875.53, 0.032, 0.000, -1.040, 12:42:24.429, 1587811344429
39, 1114.77, 443.24, 612.52, 849.01, 0.032, 0.000, -1.040, 12:42:24.445, 1587811344445
40, 1151.04, 491.19, 628.09, 847.56, 0.032, 0.000, -1.040, 12:42:24.445, 1587811344445
41, 1139.01, 489.88, 611.31, 863.08, 0.032, 0.000, -1.040, 12:42:24.459, 1587811344459
42, 1105.23, 441.82, 595.39, 867.68, 0.032, 0.000, -1.040, 12:42:24.459, 1587811344459
43, 1102.51, 437.85, 607.04, 839.08, 0.032, 0.000, -1.040, 12:42:24.460, 1587811344460
44, 1145.50, 482.15, 614.54, 845.33, 0.032, 0.000, -1.040, 12:42:24.460, 1587811344460
45, 1144.62, 488.98, 613.50, 863.67, 0.032, 0.000, -1.040, 12:42:24.475, 1587811344475
46, 1111.29, 449.25, 599.88, 872.33, 0.032, 0.000, -1.024, 12:42:24.475, 1587811344475
47, 1106.59, 442.62, 614.74, 850.85, 0.032, 0.000, -1.024, 12:42:24.489, 1587811344489
48, 1153.27, 490.88, 628.86, 844.85, 0.032, 0.000, -1.024, 12:42:24.489, 1587811344489
49, 1139.77, 483.42, 606.54, 857.11, 0.032, 0.000, -1.024, 12:42:24.490, 1587811344490
50, 1114.96, 447.53, 603.41, 874.04, 0.032, 0.000, -1.024, 12:42:24.490, 1587811344490
51, 1113.76, 449.42, 613.03, 856.48, 0.032, 0.000, -1.024, 12:42:24.504, 1587811344504
52, 1151.95, 493.08, 628.10, 851.09, 0.032, 0.000, -1.024, 12:42:24.504, 1587811344504
53, 1154.55, 493.71, 614.75, 876.66, 0.032, 0.000, -1.024, 12:42:24.505, 1587811344505
54, 1116.57, 450.03, 607.05, 878.22, 0.032, 0.000, -1.024, 12:42:24.505, 1587811344505
55, 1109.62, 443.78, 616.03, 852.67, 0.032, 0.000, -1.024, 12:42:24.519, 1587811344519
56, 1141.09, 477.21, 613.26, 831.93, 0.032, 0.000, -1.024, 12:42:24.519, 1587811344519
57, 1136.30, 484.09, 608.67, 862.85, 0.032, 0.000, -1.024, 12:42:24.534, 1587811344534
58, 1098.35, 439.42, 589.89, 862.41, 0.032, 0.000, -1.024, 12:42:24.534, 1587811344534
59, 1106.83, 437.59, 608.81, 848.90, 0.032, 0.000, -1.024, 12:42:24.535, 1587811344535
60, 1139.94, 487.82, 625.92, 843.84, 0.032, 0.000, -1.024, 12:42:24.535, 1587811344535
61, 1136.12, 475.55, 606.49, 855.41, 0.032, 0.000, -1.024, 12:42:24.549, 1587811344549
62, 1093.24, 431.63, 584.84, 868.61, 0.032, 0.000, -1.024, 12:42:24.549, 1587811344549
63, 1108.45, 444.63, 612.52, 852.19, 0.032, 0.000, -1.024, 12:42:24.564, 1587811344564
64, 1145.51, 491.89, 630.56, 842.33, 0.032, 0.000, -1.024, 12:42:24.564, 1587811344564
65, 1142.57, 487.41, 615.31, 865.88, 0.032, 0.000, -1.024, 12:42:24.565, 1587811344565
66, 1110.97, 456.44, 612.65, 878.86, 0.032, 0.000, -1.024, 12:42:24.565, 1587811344565
67, 1112.93, 448.63, 619.14, 848.14, 0.032, 0.000, -1.024, 12:42:24.579, 1587811344579
68, 1144.03, 491.40, 630.08, 845.83, 0.032, 0.000, -1.024, 12:42:24.579, 1587811344579
69, 1152.60, 500.55, 629.86, 867.75, 0.032, 0.000, -1.024, 12:42:24.594, 1587811344594
70, 1108.20, 453.64, 608.03, 870.39, 0.032, 0.000, -1.024, 12:42:24.594, 1587811344594
71, 1118.68, 450.67, 619.94, 853.58, 0.032, 0.000, -1.024, 12:42:24.595, 1587811344595
72, 1146.41, 478.84, 615.08, 839.76, 0.032, 0.000, -1.024, 12:42:24.595, 1587811344595
73, 1146.48, 491.27, 611.74, 862.41, 0.032, 0.000, -1.024, 12:42:24.609, 1587811344609
74, 1097.77, 446.90, 600.71, 871.35, 0.032, 0.000, -1.024, 12:42:24.609, 1587811344609
75, 1100.51, 439.25, 608.95, 848.10, 0.032, 0.000, -1.024, 12:42:24.625, 1587811344625
76, 1141.22, 486.75, 624.82, 844.50, 0.032, 0.000, -1.024, 12:42:24.625, 1587811344625
77, 1145.77, 493.78, 621.79, 863.23, 0.032, 0.000, -1.024, 12:42:24.626, 1587811344626
78, 1112.49, 450.26, 604.74, 870.83, 0.032, 0.000, -1.024, 12:42:24.626, 1587811344626
79, 1110.53, 446.02, 611.51, 846.03, 0.032, 0.000, -1.024, 12:42:24.639, 1587811344639
80, 1148.53, 486.53, 622.37, 840.55, 0.032, 0.000, -1.024, 12:42:24.639, 1587811344639
81, 1146.23, 491.49, 618.65, 863.62, 0.032, 0.000, -1.024, 12:42:24.655, 1587811344655
82, 1108.46, 451.07, 603.50, 868.75, 0.032, 0.000, -1.024, 12:42:24.655, 1587811344655
83, 1115.89, 450.53, 617.14, 849.80, 0.032, 0.000, -1.024, 12:42:24.656, 1587811344656
84, 1153.24, 497.17, 630.88, 846.03, 0.032, 0.000, -1.024, 12:42:24.656, 1587811344656
85, 1146.36, 494.79, 613.44, 861.53, 0.032, 0.000, -1.024, 12:42:24.669, 1587811344669
86, 1103.35, 452.51, 601.35, 868.96, 0.032, 0.000, -1.040, 12:42:24.669, 1587811344669
87, 1110.73, 446.99, 614.13, 854.83, 0.032, 0.000, -1.040, 12:42:24.684, 1587811344684
88, 1142.89, 484.53, 620.74, 837.25, 0.032, 0.000, -1.040, 12:42:24.684, 1587811344684
89, 1142.45, 495.93, 610.72, 865.51, 0.032, 0.000, -1.040, 12:42:24.685, 1587811344685
90, 1101.04, 444.74, 598.62, 865.83, 0.032, 0.000, -1.040, 12:42:24.685, 1587811344685
91, 1106.47, 448.43, 606.64, 849.06, 0.032, 0.000, -1.040, 12:42:24.699, 1587811344699
92, 1136.64, 480.82, 614.42, 838.32, 0.032, 0.000, -1.040, 12:42:24.699, 1587811344699
93, 1139.38, 490.38, 613.84, 862.46, 0.032, 0.000, -1.040, 12:42:24.715, 1587811344715
94, 1104.60, 449.71, 602.15, 869.73, 0.032, 0.000, -1.040, 12:42:24.715, 1587811344715
95, 1113.15, 454.84, 617.93, 854.65, 0.032, 0.000, -1.040, 12:42:24.715, 1587811344715
96, 1148.76, 491.08, 623.01, 842.01, 0.032, 0.000, -1.040, 12:42:24.715, 1587811344715
97, 1140.11, 489.23, 605.31, 857.54, 0.032, 0.000, -1.040, 12:42:24.729, 1587811344729
98, 1093.97, 441.41, 594.49, 862.85, 0.032, 0.000, -1.040, 12:42:24.729, 1587811344729
99, 1099.06, 443.47, 605.13, 845.02, 0.032, 0.000, -1.040, 12:42:24.744, 1587811344744
100, 1139.54, 490.75, 621.40, 835.41, 0.032, 0.000, -1.040, 12:42:24.744, 1587811344744
101, 1147.95, 497.45, 608.71, 866.53, 0.032, 0.000, -1.040, 12:42:24.745, 1587811344745
102, 1108.85, 456.12, 603.07, 874.97, 0.032, 0.000, -1.040, 12:42:24.745, 1587811344745
103, 1110.70, 440.00, 602.79, 847.19, 0.032, 0.000, -1.040, 12:42:24.759, 1587811344759
104, 1144.97, 486.93, 623.98, 847.14, 0.032, 0.000, -1.040, 12:42:24.759, 1587811344759
105, 1146.05, 495.78, 614.93, 867.23, 0.032, 0.000, -1.040, 12:42:24.774, 1587811344774
106, 1106.24, 446.96, 595.49, 862.62, 0.032, 0.000, -1.040, 12:42:24.774, 1587811344774
107, 1108.52, 446.79, 610.51, 843.52, 0.032, 0.000, -1.040, 12:42:24.775, 1587811344775
108, 1143.80, 494.14, 624.07, 836.56, 0.032, 0.000, -1.040, 12:42:24.775, 1587811344775
109, 1137.32, 488.30, 612.56, 861.44, 0.032, 0.000, -1.040, 12:42:24.789, 1587811344789
110, 1105.99, 449.80, 600.42, 870.05, 0.032, 0.000, -1.040, 12:42:24.789, 1587811344789
111, 1104.99, 450.50, 608.23, 847.96, 0.032, 0.000, -1.040, 12:42:24.805, 1587811344805
112, 1145.27, 486.88, 614.90, 843.39, 0.032, 0.000, -1.040, 12:42:24.805, 1587811344805
113, 1147.07, 497.08, 612.68, 863.36, 0.032, 0.000, -1.040, 12:42:24.806, 1587811344806
114, 1101.43, 452.23, 597.07, 870.32, 0.032, 0.000, -1.040, 12:42:24.806, 1587811344806
115, 1104.89, 448.96, 607.85, 849.73, 0.032, 0.000, -1.040, 12:42:24.819, 1587811344819
116, 1153.15, 494.46, 625.36, 847.06, 0.032, 0.000, -1.040, 12:42:24.819, 1587811344819
117, 1141.71, 499.40, 615.81, 865.54, 0.032, 0.000, -1.040, 12:42:24.835, 1587811344835
118, 1103.98, 449.34, 600.06, 875.71, 0.032, 0.000, -1.040, 12:42:24.835, 1587811344835
119, 1108.34, 452.07, 609.87, 851.75, 0.032, 0.000, -1.040, 12:42:24.835, 1587811344835
120, 1146.34, 502.70, 634.75, 852.58, 0.032, 0.000, -1.040, 12:42:24.835, 1587811344835
121, 1137.26, 495.38, 613.23, 865.36, 0.032, 0.000, -1.040, 12:42:24.849, 1587811344849
122, 1099.62, 451.88, 598.54, 869.37, 0.032, 0.000, -1.040, 12:42:24.849, 1587811344849
123, 1107.54, 455.30, 616.38, 861.96, 0.032, 0.000, -1.040, 12:42:24.864, 1587811344864
124, 1148.96, 492.76, 626.88, 847.95, 0.032, 0.000, -1.040, 12:42:24.864, 1587811344864
125, 1148.70, 499.49, 618.19, 870.69, 0.032, 0.000, -1.040, 12:42:24.865, 1587811344865
126, 1105.38, 455.18, 603.97, 879.51, 0.032, 0.000, -1.024, 12:42:24.865, 1587811344865
127, 1103.24, 447.31, 606.80, 844.66, 0.032, 0.000, -1.024, 12:42:24.879, 1587811344879
128, 1137.29, 490.98, 619.19, 838.92, 0.032, 0.000, -1.024, 12:42:24.879, 1587811344879
129, 1135.58, 490.04, 606.73, 864.80, 0.032, 0.000, -1.024, 12:42:24.894, 1587811344894
130, 1110.53, 455.25, 604.12, 880.60, 0.032, 0.000, -1.024, 12:42:24.894, 1587811344894
131, 1108.08, 445.73, 607.20, 848.88, 0.032, 0.000, -1.024, 12:42:24.895, 1587811344895
132, 1139.04, 482.31, 613.31, 837.93, 0.032, 0.000, -1.024, 12:42:24.895, 1587811344895
133, 1148.47, 492.78, 610.14, 865.15, 0.032, 0.000, -1.024, 12:42:24.910, 1587811344910
134, 1106.66, 459.76, 604.17, 869.77, 0.032, 0.000, -1.024, 12:42:24.910, 1587811344910
135, 1097.92, 440.50, 600.25, 846.25, 0.032, 0.000, -1.024, 12:42:24.924, 1587811344924
136, 1141.22, 482.52, 611.21, 837.70, 0.032, 0.000, -1.024, 12:42:24.924, 1587811344924
137, 1134.25, 490.54, 604.74, 859.47, 0.032, 0.000, -1.024, 12:42:24.925, 1587811344925
138, 1104.70, 450.12, 593.03, 870.49, 0.032, 0.000, -1.024, 12:42:24.925, 1587811344925
139, 1104.16, 442.02, 602.10, 853.35, 0.032, 0.000, -1.024, 12:42:24.939, 1587811344939
140, 1137.10, 488.39, 622.31, 835.87, 0.032, 0.000, -1.024, 12:42:24.939, 1587811344939
141, 1143.14, 492.74, 603.52, 863.85, 0.032, 0.000, -1.024, 12:42:24.954, 1587811344954
142, 1100.30, 450.75, 595.12, 871.32, 0.032, 0.000, -1.024, 12:42:24.954, 1587811344954
143, 1104.56, 445.99, 602.87, 846.65, 0.032, 0.000, -1.024, 12:42:24.955, 1587811344955
144, 1144.64, 490.83, 622.12, 838.26, 0.032, 0.000, -1.024, 12:42:24.955, 1587811344955
145, 1149.22, 494.27, 606.33, 860.74, 0.032, 0.000, -1.024, 12:42:24.969, 1587811344969
146, 1114.50, 452.06, 601.09, 870.92, 0.032, 0.000, -1.024, 12:42:24.969, 1587811344969
147, 1117.67, 451.41, 611.54, 850.64, 0.032, 0.000, -1.024, 12:42:24.985, 1587811344985
148, 1142.60, 484.38, 613.53, 831.85, 0.032, 0.000, -1.024, 12:42:24.985, 1587811344985
149, 1147.17, 493.36, 609.97, 858.98, 0.032, 0.000, -1.024, 12:42:24.986, 1587811344986
150, 1109.72, 452.11, 596.78, 864.89, 0.032, 0.000, -1.024, 12:42:24.986, 1587811344986
151, 1110.47, 445.38, 606.35, 845.29, 0.032, 0.000, -1.024, 12:42:24.999, 1587811344999
152, 1139.21, 483.82, 612.64, 837.29, 0.032, 0.000, -1.024, 12:42:24.999, 1587811344999
153, 1153.23, 498.32, 612.29, 862.38, 0.032, 0.000, -1.024, 12:42:25.015, 1587811345015
154, 1103.32, 447.14, 594.11, 862.85, 0.032, 0.000, -1.024, 12:42:25.015, 1587811345015
155, 1105.44, 435.92, 596.93, 836.45, 0.032, 0.000, -1.024, 12:42:25.016, 1587811345016
156, 1150.51, 490.33, 616.76, 836.76, 0.032, 0.000, -1.024, 12:42:25.016, 1587811345016
157, 1150.30, 491.95, 603.33, 866.31, 0.032, 0.000, -1.024, 12:42:25.029, 1587811345029
158, 1117.03, 456.96, 599.09, 872.78, 0.032, 0.000, -1.024, 12:42:25.029, 1587811345029
159, 1111.66, 443.75, 600.89, 841.58, 0.032, 0.000, -1.024, 12:42:25.044, 1587811345044
160, 1155.93, 494.23, 614.32, 841.07, 0.032, 0.000, -1.024, 12:42:25.044, 1587811345044
161, 1151.00, 495.56, 606.15, 858.29, 0.032, 0.000, -1.024, 12:42:25.045, 1587811345045
162, 1105.86, 456.75, 594.10, 874.91, 0.032, 0.000, -1.024, 12:42:25.045, 1587811345045
