%OpenBCI Raw EEG Data
%Number of channels = 4
%Sample Rate = 200.0 Hz
%First Column = SampleIndex
%Last Column = Timestamp 
%Other Columns = EEG data in microvolts followed by Accel Data (in G) interleaved with Aux Data
0, 1104.59, 419.62, 590.45, 853.96, 0.032, 0.000, -1.040, 12:37:59.135, 1587811079135
1, 1098.86, 409.38, 591.96, 863.31, 0.032, 0.000, -1.040, 12:37:59.136, 1587811079136
2, 1124.06, 441.95, 578.52, 865.75, 0.032, 0.000, -1.040, 12:37:59.136, 1587811079136
3, 1132.53, 436.58, 565.85, 843.76, 0.032, 0.000, -1.040, 12:37:59.151, 1587811079151
4, 1108.69, 411.81, 578.93, 834.40, 0.032, 0.000, -1.040, 12:37:59.151, 1587811079151
5, 1092.25, 400.27, 579.61, 849.68, 0.032, 0.000, -1.040, 12:37:59.151, 1587811079151
6, 1119.19, 428.74, 575.10, 854.66, 0.032, 0.000, -1.040, 12:37:59.151, 1587811079151
7, 1130.20, 443.30, 575.22, 846.46, 0.032, 0.000, -1.040, 12:37:59.164, 1587811079164
8, 1108.63, 414.09, 586.71, 841.08, 0.032, 0.000, -1.040, 12:37:59.164, 1587811079164
9, 1095.03, 404.73, 584.11, 859.79, 0.032, 0.000, -1.040, 12:37:59.181, 1587811079181
10, 1119.38, 426.85, 579.78, 867.53, 0.032, 0.000, -1.040, 12:37:59.181, 1587811079181
11, 1130.02, 437.61, 574.87, 844.94, 0.032, 0.000, -1.040, 12:37:59.182, 1587811079182
12, 1107.97, 408.53, 578.01, 840.20, 0.032, 0.000, -1.040, 12:37:59.182, 1587811079182
13, 1097.45, 400.94, 583.66, 853.99, 0.032, 0.000, -1.040, 12:37:59.194, 1587811079194
14, 1119.95, 419.43, 568.25, 856.53, 0.032, 0.000, -1.040, 12:37:59.194, 1587811079194
15, 1134.79, 436.00, 571.00, 847.16, 0.032, 0.000, -1.040, 12:37:59.211, 1587811079211
16, 1115.20, 412.48, 579.84, 838.93, 0.032, 0.000, -1.040, 12:37:59.211, 1587811079211
17, 1101.34, 396.55, 577.75, 851.60, 0.032, 0.000, -1.040, 12:37:59.212, 1587811079212
18, 1129.82, 426.21, 572.94, 847.46, 0.032, 0.000, -1.040, 12:37:59.212, 1587811079212
19, 1137.14, 436.84, 571.66, 837.32, 0.032, 0.000, -1.040, 12:37:59.225, 1587811079225
20, 1115.79, 404.06, 576.40, 833.95, 0.032, 0.000, -1.040, 12:37:59.225, 1587811079225
21, 1101.97, 394.32, 576.67, 846.40, 0.032, 0.000, -1.040, 12:37:59.240, 1587811079240
22, 1129.92, 418.14, 568.53, 851.91, 0.032, 0.000, -1.040, 12:37:59.240, 1587811079240
23, 1141.56, 435.87, 574.75, 839.16, 0.032, 0.000, -1.040, 12:37:59.241, 1587811079241
24, 1115.86, 405.60, 575.93, 833.19, 0.032, 0.000, -1.040, 12:37:59.241, 1587811079241
25, 1105.08, 396.58, 582.12, 852.06, 0.032, 0.000, -1.040, 12:37:59.255, 1587811079255
26, 1135.96, 422.53, 572.64, 860.91, 0.016, 0.000, -0.512, 12:37:59.255, 1587811079255
27, 1141.21, 432.58, 569.49, 838.05, 0.016, 0.000, -0.512, 12:37:59.270, 1587811079270
28, 1116.56, 401.66, 572.55, 829.17, 0.016, 0.000, -0.512, 12:37:59.270, 1587811079270
29, 1108.69, 395.19, 580.06, 848.63, 0.016, 0.000, -0.512, 12:37:59.271, 1587811079271
30, 1130.31, 431.14, 578.60, 862.99, 0.016, 0.000, -0.512, 12:37:59.271, 1587811079271
31, 1145.27, 433.71, 569.52, 845.86, 0.016, 0.000, -0.512, 12:37:59.285, 1587811079285
32, 1118.39, 403.97, 573.40, 841.23, 0.016, 0.000, -0.512, 12:37:59.285, 1587811079285
33, 1110.29, 398.24, 577.31, 853.91, 0.016, 0.000, -0.512, 12:37:59.300, 1587811079300
34, 1137.10, 431.60, 579.60, 859.06, 0.016, 0.000, -0.512, 12:37:59.300, 1587811079300
35, 1149.03, 444.23, 583.04, 846.56, 0.016, 0.000, -0.512, 12:37:59.301, 1587811079301
36, 1125.47, 413.04, 583.67, 841.85, 0.016, 0.000, -0.512, 12:37:59.301, 1587811079301
37, 1117.59, 403.62, 590.26, 857.77, 0.016, 0.000, -0.512, 12:37:59.316, 1587811079316
38, 1140.26, 430.84, 580.29, 862.48, 0.016, 0.000, -0.512, 12:37:59.316, 1587811079316
39, 1149.74, 436.19, 576.79, 845.35, 0.016, 0.000, -0.512, 12:37:59.331, 1587811079331
40, 1122.14, 406.82, 581.98, 841.16, 0.016, 0.000, -0.512, 12:37:59.331, 1587811079331
41, 1115.12, 407.36, 586.85, 854.96, 0.016, 0.000, -0.512, 12:37:59.331, 1587811079331
42, 1144.45, 434.45, 581.10, 866.22, 0.016, 0.000, -0.512, 12:37:59.331, 1587811079331
43, 1155.59, 447.35, 581.82, 852.93, 0.016, 0.000, -0.512, 12:37:59.344, 1587811079344
44, 1129.12, 424.88, 589.62, 838.27, 0.016, 0.000, -0.512, 12:37:59.344, 1587811079344
45, 1118.53, 411.59, 585.92, 858.37, 0.016, 0.000, -0.512, 12:37:59.361, 1587811079361
46, 1143.74, 436.75, 586.25, 860.49, 0.032, 0.000, -0.768, 12:37:59.361, 1587811079361
47, 1154.80, 445.77, 581.11, 847.05, 0.032, 0.000, -0.768, 12:37:59.363, 1587811079363
48, 1127.10, 422.99, 589.83, 840.17, 0.032, 0.000, -0.768, 12:37:59.363, 1587811079363
49, 1120.44, 405.00, 585.90, 857.44, 0.032, 0.000, -0.768, 12:37:59.374, 1587811079374
50, 1147.11, 436.12, 579.21, 863.93, 0.032, 0.000, -0.768, 12:37:59.374, 1587811079374
51, 1151.74, 445.33, 576.38, 845.04, 0.032, 0.000, -0.768, 12:37:59.407, 1587811079407
52, 1126.44, 410.30, 581.50, 843.74, 0.032, 0.000, -0.768, 12:37:59.407, 1587811079407
53, 1120.63, 403.45, 588.32, 860.77, 0.032, 0.000, -0.768, 12:37:59.408, 1587811079408
54, 1145.79, 433.88, 576.69, 865.94, 0.032, 0.000, -0.768, 12:37:59.408, 1587811079408
55, 1153.76, 441.49, 580.01, 849.46, 0.032, 0.000, -0.768, 12:37:59.408, 1587811079408
56, 1126.72, 414.80, 578.51, 845.77, 0.032, 0.000, -0.768, 12:37:59.408, 1587811079408
57, 1118.38, 403.31, 586.38, 863.69, 0.032, 0.000, -0.768, 12:37:59.409, 1587811079409
58, 1143.19, 428.88, 579.73, 861.16, 0.032, 0.000, -0.768, 12:37:59.409, 1587811079409
59, 1151.97, 437.76, 573.38, 842.06, 0.032, 0.000, -0.768, 12:37:59.419, 1587811079419
60, 1130.34, 406.87, 578.63, 844.01, 0.032, 0.000, -0.768, 12:37:59.419, 1587811079419
61, 1125.91, 401.98, 588.94, 854.38, 0.032, 0.000, -0.768, 12:37:59.435, 1587811079435
62, 1154.14, 431.96, 580.22, 865.36, 0.032, 0.000, -0.768, 12:37:59.435, 1587811079435
63, 1165.87, 431.38, 568.96, 839.60, 0.032, 0.000, -0.768, 12:37:59.450, 1587811079450
64, 1137.55, 409.78, 577.30, 831.76, 0.032, 0.000, -0.768, 12:37:59.450, 1587811079450
65, 1126.25, 397.86, 586.30, 857.38, 0.032, 0.000, -0.768, 12:37:59.451, 1587811079451
66, 1136.02, 424.16, 567.50, 855.61, 0.032, 0.000, -0.896, 12:37:59.451, 1587811079451
67, 1162.80, 465.51, 590.61, 833.50, 0.032, 0.000, -0.896, 12:37:59.465, 1587811079465
68, 1152.36, 445.84, 623.19, 830.37, 0.032, 0.000, -0.896, 12:37:59.465, 1587811079465
69, 1146.66, 464.96, 670.34, 849.20, 0.032, 0.000, -0.896, 12:37:59.480, 1587811079480
70, 1176.51, 519.34, 694.53, 853.16, 0.032, 0.000, -0.896, 12:37:59.480, 1587811079480
71, 1178.67, 547.00, 713.38, 825.79, 0.032, 0.000, -0.896, 12:37:59.481, 1587811079481
72, 1158.22, 520.31, 736.64, 812.96, 0.032, 0.000, -0.896, 12:37:59.481, 1587811079481
73, 1138.55, 515.56, 740.34, 835.06, 0.032, 0.000, -0.896, 12:37:59.511, 1587811079511
74, 1163.26, 569.77, 748.67, 842.66, 0.032, 0.000, -0.896, 12:37:59.511, 1587811079511
75, 1175.15, 560.52, 734.47, 821.40, 0.032, 0.000, -0.896, 12:37:59.511, 1587811079511
76, 1151.36, 531.44, 720.75, 813.79, 0.032, 0.000, -0.896, 12:37:59.511, 1587811079511
77, 1141.08, 517.45, 727.55, 831.06, 0.032, 0.000, -0.896, 12:37:59.512, 1587811079512
78, 1161.18, 554.99, 721.93, 837.14, 0.032, 0.000, -0.896, 12:37:59.512, 1587811079512
79, 1173.78, 549.81, 704.75, 817.53, 0.032, 0.000, -0.896, 12:37:59.524, 1587811079524
80, 1146.56, 519.62, 711.96, 815.77, 0.032, 0.000, -0.896, 12:37:59.524, 1587811079524
81, 1132.13, 502.14, 709.21, 831.76, 0.032, 0.000, -0.896, 12:37:59.541, 1587811079541
82, 1149.94, 521.13, 694.62, 831.76, 0.032, 0.000, -0.896, 12:37:59.541, 1587811079541
83, 1163.10, 531.33, 689.66, 821.49, 0.032, 0.000, -0.896, 12:37:59.542, 1587811079542
84, 1142.44, 507.83, 693.39, 812.55, 0.032, 0.000, -0.896, 12:37:59.542, 1587811079542
85, 1131.84, 500.13, 698.54, 832.90, 0.032, 0.000, -0.896, 12:37:59.571, 1587811079571
86, 1162.35, 525.97, 692.61, 838.63, 0.032, 0.000, -0.976, 12:37:59.571, 1587811079571
87, 1167.84, 535.94, 685.36, 823.24, 0.032, 0.000, -0.976, 12:37:59.573, 1587811079573
88, 1145.69, 505.32, 692.75, 819.19, 0.032, 0.000, -0.976, 12:37:59.573, 1587811079573
89, 1133.34, 505.51, 690.07, 842.17, 0.032, 0.000, -0.976, 12:37:59.574, 1587811079574
90, 1157.71, 527.17, 684.16, 852.01, 0.032, 0.000, -0.976, 12:37:59.574, 1587811079574
91, 1164.56, 528.57, 672.29, 829.92, 0.032, 0.000, -0.976, 12:37:59.584, 1587811079584
92, 1136.32, 496.10, 675.65, 825.39, 0.032, 0.000, -0.976, 12:37:59.584, 1587811079584
93, 1124.46, 485.57, 680.19, 840.79, 0.032, 0.000, -0.976, 12:37:59.601, 1587811079601
94, 1150.34, 515.97, 672.80, 836.69, 0.032, 0.000, -0.976, 12:37:59.601, 1587811079601
95, 1162.00, 531.45, 667.67, 820.68, 0.032, 0.000, -0.976, 12:37:59.601, 1587811079601
96, 1138.16, 509.19, 677.21, 822.69, 0.032, 0.000, -0.976, 12:37:59.601, 1587811079601
97, 1135.81, 499.27, 682.31, 846.48, 0.032, 0.000, -0.976, 12:37:59.615, 1587811079615
98, 1152.61, 525.18, 670.62, 851.77, 0.032, 0.000, -0.976, 12:37:59.615, 1587811079615
99, 1160.18, 528.64, 662.13, 832.51, 0.032, 0.000, -0.976, 12:37:59.630, 1587811079630
100, 1131.60, 493.69, 659.44, 823.55, 0.032, 0.000, -0.976, 12:37:59.630, 1587811079630
101, 1124.75, 490.95, 665.41, 839.44, 0.032, 0.000, -0.976, 12:37:59.631, 1587811079631
102, 1148.19, 517.84, 662.16, 850.91, 0.032, 0.000, -0.976, 12:37:59.631, 1587811079631
103, 1158.16, 528.70, 657.12, 837.38, 0.032, 0.000, -0.976, 12:37:59.645, 1587811079645
104, 1131.68, 495.84, 661.28, 831.89, 0.032, 0.000, -0.976, 12:37:59.645, 1587811079645
105, 1122.08, 481.38, 659.48, 849.20, 0.032, 0.000, -0.976, 12:37:59.660, 1587811079660
106, 1152.38, 515.93, 656.68, 851.73, 0.032, 0.000, -1.008, 12:37:59.660, 1587811079660
107, 1154.59, 521.30, 648.06, 841.09, 0.032, 0.000, -1.008, 12:37:59.661, 1587811079661
108, 1139.03, 492.92, 651.55, 835.76, 0.032, 0.000, -1.008, 12:37:59.661, 1587811079661
109, 1127.19, 482.70, 660.40, 852.54, 0.032, 0.000, -1.008, 12:37:59.691, 1587811079691
110, 1149.30, 510.80, 648.21, 851.36, 0.032, 0.000, -1.008, 12:37:59.691, 1587811079691
111, 1162.93, 522.14, 646.10, 839.59, 0.032, 0.000, -1.008, 12:37:59.692, 1587811079692
112, 1134.39, 483.79, 645.00, 837.52, 0.032, 0.000, -1.008, 12:37:59.692, 1587811079692
113, 1128.27, 477.23, 643.78, 854.66, 0.032, 0.000, -1.008, 12:37:59.692, 1587811079692
114, 1151.30, 510.59, 644.97, 862.27, 0.032, 0.000, -1.008, 12:37:59.692, 1587811079692
115, 1155.06, 508.67, 630.31, 838.59, 0.032, 0.000, -1.008, 12:37:59.704, 1587811079704
116, 1133.52, 477.19, 629.16, 833.19, 0.032, 0.000, -1.008, 12:37:59.704, 1587811079704
117, 1117.64, 464.40, 635.19, 848.07, 0.032, 0.000, -1.008, 12:37:59.720, 1587811079720
118, 1144.36, 490.09, 622.31, 853.05, 0.032, 0.000, -1.008, 12:37:59.720, 1587811079720
119, 1152.77, 502.12, 622.13, 842.73, 0.032, 0.000, -1.008, 12:37:59.721, 1587811079721
120, 1130.82, 468.96, 613.32, 837.48, 0.032, 0.000, -1.008, 12:37:59.721, 1587811079721
121, 1121.04, 458.19, 628.79, 848.13, 0.032, 0.000, -1.008, 12:37:59.735, 1587811079735
122, 1121.82, 469.69, 618.58, 857.97, 0.032, 0.000, -1.008, 12:37:59.735, 1587811079735
123, 1104.36, 439.05, 604.69, 854.12, 0.032, 0.000, -1.008, 12:37:59.750, 1587811079750
124, 1152.94, 485.14, 638.31, 843.25, 0.032, 0.000, -1.008, 12:37:59.750, 1587811079750
125, 1171.05, 516.92, 625.47, 851.86, 0.032, 0.000, -1.008, 12:37:59.751, 1587811079751
126, 1121.86, 464.72, 594.06, 865.58, 0.048, 0.000, -1.024, 12:37:59.751, 1587811079751
127, 1100.52, 426.32, 610.70, 853.58, 0.048, 0.000, -1.024, 12:37:59.765, 1587811079765
128, 1156.74, 475.83, 640.75, 842.79, 0.048, 0.000, -1.024, 12:37:59.765, 1587811079765
129, 1167.16, 511.02, 627.23, 852.95, 0.048, 0.000, -1.024, 12:37:59.780, 1587811079780
130, 1122.33, 460.04, 584.51, 866.10, 0.048, 0.000, -1.024, 12:37:59.780, 1587811079780
131, 1099.18, 418.15, 599.27, 860.34, 0.048, 0.000, -1.024, 12:37:59.781, 1587811079781
132, 1147.76, 467.02, 631.98, 847.57, 0.048, 0.000, -1.024, 12:37:59.781, 1587811079781
133, 1155.97, 482.01, 600.22, 846.39, 0.048, 0.000, -1.024, 12:37:59.794, 1587811079794
134, 1126.59, 469.60, 598.25, 870.86, 0.048, 0.000, -1.024, 12:37:59.794, 1587811079794
135, 1111.52, 447.05, 619.74, 858.14, 0.048, 0.000, -1.024, 12:37:59.810, 1587811079810
136, 1159.44, 488.08, 666.20, 840.79, 0.048, 0.000, -1.024, 12:37:59.810, 1587811079810
137, 1184.90, 510.20, 639.75, 851.47, 0.048, 0.000, -1.024, 12:37:59.811, 1587811079811
138, 1137.03, 472.16, 612.50, 864.15, 0.048, 0.000, -1.024, 12:37:59.811, 1587811079811
139, 1113.96, 438.52, 628.09, 857.64, 0.048, 0.000, -1.024, 12:37:59.825, 1587811079825
140, 1164.33, 484.89, 654.80, 839.05, 0.048, 0.000, -1.024, 12:37:59.825, 1587811079825
141, 1183.89, 513.26, 630.87, 846.24, 0.048, 0.000, -1.024, 12:37:59.840, 1587811079840
142, 1138.63, 474.17, 603.26, 862.67, 0.048, 0.000, -1.024, 12:37:59.840, 1587811079840
143, 1116.65, 445.43, 623.00, 868.20, 0.048, 0.000, -1.024, 12:37:59.841, 1587811079841
144, 1166.20, 492.09, 650.36, 848.42, 0.048, 0.000, -1.024, 12:37:59.841, 1587811079841
145, 1184.74, 516.46, 621.73, 852.50, 0.048, 0.000, -1.024, 12:37:59.856, 1587811079856
146, 1133.65, 467.28, 589.22, 861.79, 0.032, 0.000, -1.024, 12:37:59.856, 1587811079856
147, 1117.79, 441.39, 609.54, 862.99, 0.032, 0.000, -1.024, 12:37:59.871, 1587811079871
148, 1172.74, 496.33, 645.18, 848.57, 0.032, 0.000, -1.024, 12:37:59.871, 1587811079871
149, 1188.75, 536.10, 630.83, 851.33, 0.032, 0.000, -1.024, 12:37:59.871, 1587811079871
150, 1132.68, 465.51, 585.71, 866.16, 0.032, 0.000, -1.024, 12:37:59.871, 1587811079871
151, 1103.96, 427.84, 603.41, 868.00, 0.032, 0.000, -1.024, 12:37:59.884, 1587811079884
152, 1152.86, 476.75, 631.48, 859.23, 0.032, 0.000, -1.024, 12:37:59.884, 1587811079884
153, 1169.99, 509.70, 629.86, 856.59, 0.032, 0.000, -1.024, 12:37:59.901, 1587811079901
154, 1122.71, 454.12, 591.52, 878.54, 0.032, 0.000, -1.024, 12:37:59.901, 1587811079901
155, 1107.94, 433.72, 606.56, 870.85, 0.032, 0.000, -1.024, 12:37:59.901, 1587811079901
156, 1167.16, 502.71, 648.26, 851.55, 0.032, 0.000, -1.024, 12:37:59.901, 1587811079901
157, 1182.05, 529.47, 627.36, 856.53, 0.032, 0.000, -1.024, 12:37:59.914, 1587811079914
158, 1134.89, 476.02, 585.37, 876.77, 0.032, 0.000, -1.024, 12:37:59.914, 1587811079914
159, 1123.10, 457.42, 604.57, 877.08, 0.032, 0.000, -1.024, 12:37:59.930, 1587811079930
160, 1177.45, 509.04, 639.38, 861.96, 0.032, 0.000, -1.024, 12:37:59.930, 1587811079930
161, 1200.52, 546.51, 626.38, 859.90, 0.032, 0.000, -1.024, 12:37:59.931, 1587811079931
162, 1147.34, 493.00, 590.23, 874.79, 0.032, 0.000, -1.024, 12:37:59.931, 1587811079931
163, 1133.50, 463.03, 603.23, 873.74, 0.032, 0.000, -1.024, 12:37:59.944, 1587811079944
164, 1182.54, 514.22, 634.05, 856.28, 0.032, 0.000, -1.024, 12:37:59.944, 1587811079944
165, 1193.51, 544.69, 612.67, 860.25, 0.032, 0.000, -1.024, 12:37:59.960, 1587811079960
166, 1144.29, 487.58, 584.47, 877.44, 0.048, 0.000, -1.024, 12:37:59.960, 1587811079960
167, 1134.90, 468.07, 610.71, 866.57, 0.048, 0.000, -1.024, 12:37:59.961, 1587811079961
168, 1175.80, 512.58, 635.38, 855.93, 0.048, 0.000, -1.024, 12:37:59.961, 1587811079961
169, 1193.12, 530.40, 610.47, 864.32, 0.048, 0.000, -1.024, 12:37:59.975, 1587811079975
170, 1144.63, 483.56, 580.17, 879.82, 0.048, 0.000, -1.024, 12:37:59.975, 1587811079975
171, 1126.08, 461.46, 605.74, 871.42, 0.048, 0.000, -1.024, 12:37:59.990, 1587811079990
172, 1176.62, 502.59, 633.72, 859.49, 0.048, 0.000, -1.024, 12:37:59.990, 1587811079990
173, 1190.24, 528.85, 621.96, 863.52, 0.048, 0.000, -1.024, 12:37:59.991, 1587811079991
174, 1142.74, 491.75, 590.62, 879.36, 0.048, 0.000, -1.024, 12:37:59.991, 1587811079991
175, 1130.49, 463.58, 603.27, 875.94, 0.048, 0.000, -1.024, 12:38:00.005, 1587811080005
176, 1173.04, 502.86, 627.85, 860.19, 0.048, 0.000, -1.024, 12:38:00.005, 1587811080005
177, 1184.06, 520.97, 604.68, 867.56, 0.048, 0.000, -1.024, 12:38:00.020, 1587811080020
178, 1134.62, 480.15, 578.62, 883.27, 0.048, 0.000, -1.024, 12:38:00.020, 1587811080020
179, 1126.40, 461.36, 600.98, 882.23, 0.048, 0.000, -1.024, 12:38:00.021, 1587811080021
180, 1173.44, 510.08, 639.65, 863.99, 0.048, 0.000, -1.024, 12:38:00.021, 1587811080021
181, 1178.67, 526.40, 612.14, 866.06, 0.048, 0.000, -1.024, 12:38:00.035, 1587811080035
182, 1137.67, 473.85, 581.04, 876.08, 0.048, 0.000, -1.024, 12:38:00.035, 1587811080035
183, 1119.09, 444.24, 589.94, 877.68, 0.048, 0.000, -1.024, 12:38:00.050, 1587811080050
184, 1162.56, 499.92, 624.13, 861.25, 0.048, 0.000, -1.024, 12:38:00.050, 1587811080050
185, 1173.61, 510.26, 605.68, 866.60, 0.048, 0.000, -1.024, 12:38:00.051, 1587811080051
186, 1128.01, 455.96, 565.96, 883.74, 0.048, 0.000, -1.040, 12:38:00.051, 1587811080051
187, 1117.19, 434.29, 585.96, 875.37, 0.048, 0.000, -1.040, 12:38:00.064, 1587811080064
188, 1159.24, 479.90, 612.97, 850.01, 0.048, 0.000, -1.040, 12:38:00.064, 1587811080064
189, 1172.79, 492.80, 595.33, 857.65, 0.048, 0.000, -1.040, 12:38:00.080, 1587811080080
190, 1130.21, 454.55, 565.24, 880.38, 0.048, 0.000, -1.040, 12:38:00.080, 1587811080080
191, 1110.62, 429.38, 584.13, 870.30, 0.048, 0.000, -1.040, 12:38:00.081, 1587811080081
192, 1160.55, 473.86, 626.16, 847.68, 0.048, 0.000, -1.040, 12:38:00.081, 1587811080081
193, 1175.35, 503.52, 610.56, 861.69, 0.048, 0.000, -1.040, 12:38:00.095, 1587811080095
194, 1128.05, 449.64, 572.58, 883.44, 0.048, 0.000, -1.040, 12:38:00.095, 1587811080095
195, 1113.76, 425.00, 585.25, 870.40, 0.048, 0.000, -1.040, 12:38:00.110, 1587811080110
196, 1162.29, 477.46, 620.76, 851.62, 0.048, 0.000, -1.040, 12:38:00.110, 1587811080110
197, 1178.82, 498.06, 613.57, 862.43, 0.048, 0.000, -1.040, 12:38:00.126, 1587811080126
198, 1143.25, 454.59, 579.50, 883.79, 0.048, 0.000, -1.040, 12:38:00.126, 1587811080126
199, 1128.07, 427.28, 596.58, 871.49, 0.048, 0.000, -1.040, 12:38:00.126, 1587811080126
200, 1165.41, 458.68, 614.50, 847.32, 0.048, 0.000, -1.040, 12:38:00.126, 1587811080126
0, 1174.57, 475.49, 601.26, 852.07, 0.048, 0.000, -1.040, 12:38:00.127, 1587811080127
1, 1133.67, 451.69, 572.54, 876.84, 0.048, 0.000, -1.040, 12:38:00.139, 1587811080139
2, 1119.03, 417.58, 590.66, 870.63, 0.048, 0.000, -1.040, 12:38:00.139, 1587811080139
3, 1160.50, 455.23, 619.05, 853.44, 0.048, 0.000, -1.040, 12:38:00.156, 1587811080156
4, 1171.01, 473.28, 597.92, 861.53, 0.048, 0.000, -1.040, 12:38:00.156, 1587811080156
5, 1132.81, 426.57, 566.87, 884.04, 0.048, 0.000, -1.040, 12:38:00.157, 1587811080157
6, 1118.83, 410.24, 590.09, 875.24, 0.048, 0.000, -1.040, 12:38:00.157, 1587811080157
7, 1157.92, 453.38, 619.60, 849.31, 0.048, 0.000, -1.040, 12:38:00.187, 1587811080187
8, 1175.36, 475.76, 600.97, 859.23, 0.048, 0.000, -1.040, 12:38:00.187, 1587811080187
9, 1131.91, 431.00, 570.13, 887.97, 0.048, 0.000, -1.040, 12:38:00.188, 1587811080188
10, 1117.20, 399.51, 586.16, 877.31, 0.048, 0.000, -1.040, 12:38:00.188, 1587811080188
11, 1151.49, 442.32, 616.44, 854.59, 0.048, 0.000, -1.040, 12:38:00.189, 1587811080189
12, 1164.13, 465.00, 591.99, 862.83, 0.048, 0.000, -1.040, 12:38:00.189, 1587811080189
13, 1125.54, 421.72, 561.64, 882.18, 0.048, 0.000, -1.040, 12:38:00.200, 1587811080200
14, 1118.86, 400.82, 584.99, 869.17, 0.048, 0.000, -1.040, 12:38:00.200, 1587811080200
15, 1159.62, 441.10, 617.75, 858.16, 0.048, 0.000, -1.040, 12:38:00.215, 1587811080215
16, 1169.68, 462.01, 599.40, 869.24, 0.048, 0.000, -1.040, 12:38:00.215, 1587811080215
17, 1134.87, 425.20, 567.28, 886.06, 0.048, 0.000, -1.040, 12:38:00.217, 1587811080217
18, 1120.91, 406.61, 586.38, 877.01, 0.048, 0.000, -1.040, 12:38:00.217, 1587811080217
19, 1158.12, 438.80, 617.00, 855.61, 0.048, 0.000, -1.040, 12:38:00.230, 1587811080230
20, 1171.45, 460.87, 599.75, 866.52, 0.048, 0.000, -1.040, 12:38:00.230, 1587811080230
21, 1129.28, 423.25, 568.71, 882.91, 0.048, 0.000, -1.040, 12:38:00.246, 1587811080246
22, 1110.73, 390.47, 577.35, 873.60, 0.048, 0.000, -1.040, 12:38:00.246, 1587811080246
23, 1152.23, 431.84, 611.59, 854.54, 0.048, 0.000, -1.040, 12:38:00.247, 1587811080247
24, 1165.87, 457.06, 598.08, 871.83, 0.048, 0.000, -1.040, 12:38:00.247, 1587811080247
25, 1129.99, 422.63, 563.53, 892.15, 0.048, 0.000, -1.040, 12:38:00.259, 1587811080259
26, 1115.37, 398.80, 581.91, 886.31, 0.048, 0.000, -1.024, 12:38:00.259, 1587811080259
27, 1152.06, 431.37, 616.74, 860.73, 0.048, 0.000, -1.024, 12:38:00.275, 1587811080275
28, 1172.76, 452.58, 599.30, 866.83, 0.048, 0.000, -1.024, 12:38:00.275, 1587811080275
29, 1133.50, 412.53, 563.73, 880.85, 0.048, 0.000, -1.024, 12:38:00.276, 1587811080276
30, 1117.01, 388.81, 584.96, 868.95, 0.048, 0.000, -1.024, 12:38:00.276, 1587811080276
31, 1158.33, 430.12, 619.47, 857.76, 0.048, 0.000, -1.024, 12:38:00.290, 1587811080290
32, 1170.40, 454.73, 604.37, 870.90, 0.048, 0.000, -1.024, 12:38:00.290, 1587811080290
33, 1131.79, 407.98, 560.79, 886.03, 0.048, 0.000, -1.024, 12:38:00.305, 1587811080305
34, 1121.00, 390.03, 588.88, 878.28, 0.048, 0.000, -1.024, 12:38:00.305, 1587811080305
35, 1160.53, 432.12, 626.32, 861.60, 0.048, 0.000, -1.024, 12:38:00.306, 1587811080306
36, 1173.14, 446.30, 605.16, 867.35, 0.048, 0.000, -1.024, 12:38:00.306, 1587811080306
37, 1137.72, 407.18, 563.50, 885.25, 0.048, 0.000, -1.024, 12:38:00.320, 1587811080320
38, 1127.12, 383.26, 584.54, 871.13, 0.048, 0.000, -1.024, 12:38:00.320, 1587811080320
39, 1163.53, 418.98, 623.37, 851.70, 0.048, 0.000, -1.024, 12:38:00.335, 1587811080335
40, 1177.78, 441.98, 597.24, 858.29, 0.048, 0.000, -1.024, 12:38:00.335, 1587811080335
41, 1138.66, 397.32, 558.66, 873.53, 0.048, 0.000, -1.024, 12:38:00.336, 1587811080336
42, 1125.34, 370.24, 578.23, 863.74, 0.048, 0.000, -1.024, 12:38:00.336, 1587811080336
43, 1164.84, 416.94, 618.66, 845.26, 0.048, 0.000, -1.024, 12:38:00.350, 1587811080350
44, 1177.67, 439.61, 601.36, 856.39, 0.048, 0.000, -1.024, 12:38:00.350, 1587811080350
45, 1139.55, 400.69, 560.52, 868.91, 0.048, 0.000, -1.024, 12:38:00.366, 1587811080366
46, 1127.20, 376.84, 582.13, 860.90, 0.048, 0.000, -1.024, 12:38:00.366, 1587811080366
47, 1168.88, 409.84, 613.88, 839.03, 0.048, 0.000, -1.024, 12:38:00.366, 1587811080366
48, 1173.56, 432.64, 595.40, 854.99, 0.048, 0.000, -1.024, 12:38:00.366, 1587811080366
49, 1133.67, 392.18, 555.88, 866.27, 0.048, 0.000, -1.024, 12:38:00.379, 1587811080379
50, 1120.60, 364.40, 571.26, 859.25, 0.048, 0.000, -1.024, 12:38:00.379, 1587811080379
51, 1156.83, 401.68, 599.03, 842.98, 0.048, 0.000, -1.024, 12:38:00.395, 1587811080395
52, 1172.36, 419.62, 578.54, 845.55, 0.048, 0.000, -1.024, 12:38:00.395, 1587811080395
53, 1132.21, 381.40, 544.93, 860.47, 0.048, 0.000, -1.024, 12:38:00.396, 1587811080396
54, 1123.14, 358.17, 568.02, 851.85, 0.048, 0.000, -1.024, 12:38:00.396, 1587811080396
55, 1159.04, 402.21, 612.10, 830.90, 0.048, 0.000, -1.024, 12:38:00.410, 1587811080410
56, 1177.40, 427.51, 595.11, 846.19, 0.048, 0.000, -1.024, 12:38:00.410, 1587811080410
57, 1138.27, 399.21, 563.02, 868.92, 0.048, 0.000, -1.024, 12:38:00.425, 1587811080425
58, 1126.67, 374.85, 579.20, 859.08, 0.048, 0.000, -1.024, 12:38:00.425, 1587811080425
59, 1166.51, 412.70, 614.28, 843.60, 0.048, 0.000, -1.024, 12:38:00.426, 1587811080426
60, 1177.27, 445.26, 600.62, 852.61, 0.048, 0.000, -1.024, 12:38:00.426, 1587811080426
61, 1140.19, 407.70, 566.76, 872.88, 0.048, 0.000, -1.024, 12:38:00.439, 1587811080439
62, 1128.51, 383.65, 589.16, 871.06, 0.048, 0.000, -1.024, 12:38:00.439, 1587811080439
63, 1170.68, 424.60, 628.15, 854.58, 0.048, 0.000, -1.024, 12:38:00.455, 1587811080455
64, 1183.12, 448.93, 605.58, 858.31, 0.048, 0.000, -1.024, 12:38:00.455, 1587811080455
65, 1141.15, 401.60, 568.72, 871.79, 0.048, 0.000, -1.024, 12:38:00.456, 1587811080456
66, 1126.48, 387.58, 588.99, 863.93, 0.048, 0.000, -1.024, 12:38:00.456, 1587811080456
67, 1167.08, 428.91, 628.41, 842.20, 0.048, 0.000, -1.024, 12:38:00.470, 1587811080470
68, 1180.03, 450.77, 610.81, 855.15, 0.048, 0.000, -1.024, 12:38:00.470, 1587811080470
69, 1140.52, 412.49, 571.21, 874.25, 0.048, 0.000, -1.024, 12:38:00.485, 1587811080485
70, 1127.17, 382.23, 589.92, 861.61, 0.048, 0.000, -1.024, 12:38:00.485, 1587811080485
71, 1165.26, 430.59, 624.76, 840.16, 0.048, 0.000, -1.024, 12:38:00.486, 1587811080486
72, 1175.92, 450.80, 607.26, 855.44, 0.048, 0.000, -1.024, 12:38:00.486, 1587811080486
73, 1131.65, 408.90, 565.47, 876.50, 0.048, 0.000, -1.024, 12:38:00.499, 1587811080499
74, 1117.16, 385.58, 584.23, 866.80, 0.048, 0.000, -1.024, 12:38:00.499, 1587811080499
75, 1167.58, 432.06, 630.02, 841.65, 0.048, 0.000, -1.024, 12:38:00.515, 1587811080515
76, 1176.48, 457.88, 611.17, 850.16, 0.048, 0.000, -1.024, 12:38:00.515, 1587811080515
77, 1132.66, 419.21, 572.39, 874.64, 0.048, 0.000, -1.024, 12:38:00.516, 1587811080516
78, 1117.96, 398.13, 590.61, 859.91, 0.048, 0.000, -1.024, 12:38:00.516, 1587811080516
79, 1162.67, 436.45, 626.92, 845.30, 0.048, 0.000, -1.024, 12:38:00.530, 1587811080530
80, 1175.43, 465.03, 606.85, 853.11, 0.048, 0.000, -1.024, 12:38:00.530, 1587811080530
81, 1131.07, 426.91, 571.54, 876.12, 0.048, 0.000, -1.024, 12:38:00.546, 1587811080546
82, 1119.21, 401.70, 593.51, 867.29, 0.048, 0.000, -1.024, 12:38:00.546, 1587811080546
83, 1156.38, 442.21, 624.29, 850.56, 0.048, 0.000, -1.024, 12:38:00.546, 1587811080546
84, 1171.47, 462.78, 604.91, 859.60, 0.048, 0.000, -1.024, 12:38:00.546, 1587811080546
85, 1123.19, 420.31, 564.52, 866.87, 0.048, 0.000, -1.024, 12:38:00.559, 1587811080559
86, 1110.64, 392.59, 581.06, 860.21, 0.048, 0.000, -1.024, 12:38:00.559, 1587811080559
87, 1153.01, 443.06, 620.84, 847.47, 0.048, 0.000, -1.024, 12:38:00.575, 1587811080575
88, 1162.26, 463.49, 598.24, 849.95, 0.048, 0.000, -1.024, 12:38:00.575, 1587811080575
89, 1116.33, 421.50, 564.61, 865.87, 0.048, 0.000, -1.024, 12:38:00.576, 1587811080576
90, 1106.22, 396.24, 583.28, 863.16, 0.048, 0.000, -1.024, 12:38:00.576, 1587811080576
91, 1146.08, 438.48, 624.38, 844.25, 0.048, 0.000, -1.024, 12:38:00.589, 1587811080589
92, 1163.48, 467.49, 601.63, 853.64, 0.048, 0.000, -1.024, 12:38:00.589, 1587811080589
93, 1118.46, 423.75, 566.09, 871.69, 0.048, 0.000, -1.024, 12:38:00.605, 1587811080605
94, 1101.72, 400.84, 583.80, 863.72, 0.048, 0.000, -1.024, 12:38:00.605, 1587811080605
95, 1146.49, 449.48, 620.20, 847.18, 0.048, 0.000, -1.024, 12:38:00.606, 1587811080606
96, 1165.21, 475.25, 609.57, 853.95, 0.048, 0.000, -1.024, 12:38:00.606, 1587811080606
97, 1119.17, 430.53, 571.50, 869.65, 0.048, 0.000, -1.024, 12:38:00.620, 1587811080620
98, 1110.22, 407.17, 591.66, 860.56, 0.048, 0.000, -1.024, 12:38:00.620, 1587811080620
99, 1146.94, 444.69, 619.01, 848.04, 0.048, 0.000, -1.024, 12:38:00.635, 1587811080635
100, 1167.85, 475.55, 611.08, 852.40, 0.048, 0.000, -1.024, 12:38:00.635, 1587811080635
101, 1121.53, 436.26, 569.90, 871.11, 0.048, 0.000, -1.024, 12:38:00.636, 1587811080636
102, 1110.79, 412.32, 586.52, 870.48, 0.048, 0.000, -1.024, 12:38:00.636, 1587811080636
103, 1147.42, 452.76, 620.85, 853.03, 0.048, 0.000, -1.024, 12:38:00.651, 1587811080651
104, 1160.46, 470.18, 600.02, 860.61, 0.048, 0.000, -1.024, 12:38:00.651, 1587811080651
105, 1118.76, 426.98, 564.65, 873.85, 0.048, 0.000, -1.024, 12:38:00.682, 1587811080682
106, 1102.33, 408.06, 585.26, 869.65, 0.048, 0.000, -1.024, 12:38:00.682, 1587811080682
107, 1146.01, 450.15, 614.91, 850.34, 0.048, 0.000, -1.024, 12:38:00.682, 1587811080682
108, 1163.31, 479.43, 601.25, 860.51, 0.048, 0.000, -1.024, 12:38:00.682, 1587811080682
109, 1120.32, 433.80, 566.19, 880.11, 0.048, 0.000, -1.024, 12:38:00.683, 1587811080683
110, 1105.22, 411.45, 586.48, 866.82, 0.048, 0.000, -1.024, 12:38:00.683, 1587811080683
111, 1145.92, 448.61, 617.80, 847.10, 0.048, 0.000, -1.024, 12:38:00.684, 1587811080684
112, 1153.44, 477.09, 600.16, 854.44, 0.048, 0.000, -1.024, 12:38:00.684, 1587811080684
113, 1113.46, 426.18, 565.61, 869.52, 0.048, 0.000, -1.024, 12:38:00.694, 1587811080694
114, 1104.76, 412.14, 586.91, 863.39, 0.048, 0.000, -1.024, 12:38:00.695, 1587811080695
115, 1142.42, 447.86, 616.37, 843.17, 0.048, 0.000, -1.024, 12:38:00.710, 1587811080710
116, 1158.10, 471.18, 598.40, 855.02, 0.048, 0.000, -1.024, 12:38:00.710, 1587811080710
117, 1117.11, 430.44, 574.41, 870.69, 0.048, 0.000, -1.024, 12:38:00.742, 1587811080742
118, 1101.47, 411.82, 589.74, 862.74, 0.048, 0.000, -1.024, 12:38:00.742, 1587811080742
119, 1142.75, 457.52, 621.81, 842.52, 0.048, 0.000, -1.024, 12:38:00.743, 1587811080743
120, 1163.10, 476.26, 610.47, 852.40, 0.048, 0.000, -1.024, 12:38:00.743, 1587811080743
121, 1130.40, 442.33, 585.66, 880.04, 0.048, 0.000, -1.024, 12:38:00.744, 1587811080744
122, 1116.15, 420.21, 599.62, 866.89, 0.048, 0.000, -1.024, 12:38:00.744, 1587811080744
123, 1155.92, 460.16, 628.73, 847.02, 0.048, 0.000, -1.024, 12:38:00.745, 1587811080745
124, 1167.48, 481.34, 605.60, 860.40, 0.048, 0.000, -1.024, 12:38:00.745, 1587811080745
125, 1124.83, 439.77, 578.99, 876.73, 0.048, 0.000, -1.024, 12:38:00.756, 1587811080756
126, 1108.96, 418.03, 593.57, 867.57, 0.048, 0.000, -1.040, 12:38:00.756, 1587811080756
127, 1152.47, 464.77, 630.37, 847.47, 0.048, 0.000, -1.040, 12:38:00.769, 1587811080769
128, 1166.05, 480.35, 612.73, 856.98, 0.048, 0.000, -1.040, 12:38:00.769, 1587811080769
129, 1133.13, 449.34, 587.87, 880.94, 0.048, 0.000, -1.040, 12:38:00.785, 1587811080785
130, 1116.89, 419.98, 595.55, 872.84, 0.048, 0.000, -1.040, 12:38:00.785, 1587811080785
131, 1156.21, 464.02, 630.73, 850.56, 0.048, 0.000, -1.040, 12:38:00.786, 1587811080786
132, 1172.80, 487.47, 618.16, 860.73, 0.048, 0.000, -1.040, 12:38:00.786, 1587811080786
133, 1127.82, 439.60, 573.36, 871.33, 0.048, 0.000, -1.040, 12:38:00.799, 1587811080799
134, 1111.12, 418.42, 593.61, 862.46, 0.048, 0.000, -1.040, 12:38:00.799, 1587811080799
135, 1154.02, 458.77, 624.84, 848.02, 0.048, 0.000, -1.040, 12:38:00.815, 1587811080815
136, 1167.16, 485.49, 611.36, 855.69, 0.048, 0.000, -1.040, 12:38:00.815, 1587811080815
137, 1126.59, 442.18, 579.89, 873.57, 0.048, 0.000, -1.040, 12:38:00.816, 1587811080816
138, 1111.47, 418.16, 594.66, 865.75, 0.048, 0.000, -1.040, 12:38:00.816, 1587811080816
139, 1152.08, 457.16, 622.57, 849.58, 0.048, 0.000, -1.040, 12:38:00.830, 1587811080830
140, 1165.31, 482.20, 609.39, 858.67, 0.048, 0.000, -1.040, 12:38:00.830, 1587811080830
141, 1129.40, 447.59, 582.16, 874.18, 0.048, 0.000, -1.040, 12:38:00.846, 1587811080846
142, 1114.22, 425.21, 599.01, 863.16, 0.048, 0.000, -1.040, 12:38:00.846, 1587811080846
143, 1154.48, 467.78, 633.64, 848.42, 0.048, 0.000, -1.040, 12:38:00.846, 1587811080846
144, 1175.52, 495.30, 620.69, 851.23, 0.048, 0.000, -1.040, 12:38:00.846, 1587811080846
145, 1130.35, 452.78, 590.30, 868.47, 0.048, 0.000, -1.040, 12:38:00.860, 1587811080860
146, 1116.62, 428.20, 602.62, 861.27, 0.032, 0.000, -1.040, 12:38:00.860, 1587811080860
147, 1155.23, 464.84, 631.92, 842.44, 0.032, 0.000, -1.040, 12:38:00.875, 1587811080875
148, 1166.94, 490.59, 616.14, 850.03, 0.032, 0.000, -1.040, 12:38:00.875, 1587811080875
149, 1129.71, 455.65, 587.02, 864.66, 0.032, 0.000, -1.040, 12:38:00.876, 1587811080876
150, 1115.16, 434.00, 602.11, 856.04, 0.032, 0.000, -1.040, 12:38:00.876, 1587811080876
151, 1149.67, 472.40, 630.51, 838.50, 0.032, 0.000, -1.040, 12:38:00.890, 1587811080890
152, 1164.79, 486.28, 616.29, 850.60, 0.032, 0.000, -1.040, 12:38:00.890, 1587811080890
153, 1128.80, 452.05, 583.14, 868.74, 0.032, 0.000, -1.040, 12:38:00.905, 1587811080905
154, 1114.02, 428.66, 604.18, 856.88, 0.032, 0.000, -1.040, 12:38:00.905, 1587811080905
155, 1154.31, 471.39, 633.46, 842.16, 0.032, 0.000, -1.040, 12:38:00.906, 1587811080906
156, 1167.15, 492.28, 620.40, 854.68, 0.032, 0.000, -1.040, 12:38:00.906, 1587811080906
157, 1126.84, 453.65, 588.66, 862.73, 0.032, 0.000, -1.040, 12:38:00.919, 1587811080919
158, 1113.50, 436.81, 603.94, 863.73, 0.032, 0.000, -1.040, 12:38:00.919, 1587811080919
159, 1156.65, 479.93, 641.68, 851.56, 0.032, 0.000, -1.040, 12:38:00.936, 1587811080936
160, 1169.38, 502.49, 625.48, 859.58, 0.032, 0.000, -1.040, 12:38:00.936, 1587811080936
161, 1125.68, 460.28, 591.14, 870.73, 0.032, 0.000, -1.040, 12:38:00.936, 1587811080936
162, 1110.19, 432.14, 601.41, 867.90, 0.032, 0.000, -1.040, 12:38:00.936, 1587811080936
163, 1156.99, 479.39, 639.38, 855.08, 0.032, 0.000, -1.040, 12:38:00.949, 1587811080949
164, 1169.75, 501.43, 628.40, 860.21, 0.032, 0.000, -1.040, 12:38:00.949, 1587811080949
165, 1129.02, 458.84, 589.94, 867.85, 0.032, 0.000, -1.040, 12:38:00.966, 1587811080966
166, 1111.75, 437.50, 609.53, 863.45, 0.032, 0.000, -1.040, 12:38:00.966, 1587811080966
167, 1155.45, 482.18, 644.45, 854.06, 0.032, 0.000, -1.040, 12:38:00.966, 1587811080966
168, 1166.67, 508.79, 629.30, 864.39, 0.032, 0.000, -1.040, 12:38:00.966, 1587811080966
169, 1128.24, 460.75, 592.25, 873.66, 0.032, 0.000, -1.040, 12:38:00.979, 1587811080979
170, 1112.42, 434.99, 601.69, 870.32, 0.032, 0.000, -1.040, 12:38:00.979, 1587811080979
171, 1152.70, 484.09, 645.90, 860.09, 0.032, 0.000, -1.040, 12:38:00.995, 1587811080995
172, 1163.86, 504.10, 623.19, 858.41, 0.032, 0.000, -1.040, 12:38:00.995, 1587811080995
173, 1121.07, 458.37, 582.07, 869.36, 0.032, 0.000, -1.040, 12:38:00.996, 1587811080996
174, 1112.09, 422.99, 596.94, 860.03, 0.032, 0.000, -1.040, 12:38:00.996, 1587811080996
175, 1148.86, 471.24, 633.07, 847.15, 0.032, 0.000, -1.040, 12:38:01.010, 1587811081010
176, 1162.63, 496.62, 617.50, 853.86, 0.032, 0.000, -1.040, 12:38:01.010, 1587811081010
177, 1120.74, 458.33, 584.59, 868.18, 0.032, 0.000, -1.040, 12:38:01.025, 1587811081025
178, 1104.60, 427.21, 600.42, 867.42, 0.032, 0.000, -1.040, 12:38:01.025, 1587811081025
179, 1148.71, 470.59, 636.42, 855.32, 0.032, 0.000, -1.040, 12:38:01.026, 1587811081026
180, 1165.67, 494.31, 618.17, 858.11, 0.032, 0.000, -1.040, 12:38:01.026, 1587811081026
181, 1114.23, 441.66, 572.41, 871.38, 0.032, 0.000, -1.040, 12:38:01.040, 1587811081040
182, 1107.31, 418.18, 594.38, 856.79, 0.032, 0.000, -1.040, 12:38:01.040, 1587811081040
183, 1155.36, 470.78, 633.23, 848.59, 0.032, 0.000, -1.040, 12:38:01.071, 1587811081071
184, 1173.04, 492.56, 619.51, 852.18, 0.032, 0.000, -1.040, 12:38:01.071, 1587811081071
185, 1126.10, 442.73, 579.06, 868.30, 0.032, 0.000, -1.040, 12:38:01.072, 1587811081072
186, 1119.31, 431.11, 604.39, 863.84, 0.048, 0.000, -1.040, 12:38:01.072, 1587811081072
187, 1160.78, 472.19, 637.32, 854.73, 0.048, 0.000, -1.040, 12:38:01.073, 1587811081073
188, 1177.97, 495.25, 624.81, 855.82, 0.048, 0.000, -1.040, 12:38:01.073, 1587811081073
189, 1132.77, 447.57, 583.18, 869.46, 0.048, 0.000, -1.040, 12:38:01.075, 1587811081075
190, 1121.91, 420.24, 600.47, 863.65, 0.048, 0.000, -1.040, 12:38:01.075, 1587811081075
191, 1163.77, 470.38, 639.71, 852.98, 0.048, 0.000, -1.040, 12:38:01.084, 1587811081084
192, 1179.44, 499.01, 620.45, 857.72, 0.048, 0.000, -1.040, 12:38:01.084, 1587811081084
193, 1127.94, 447.92, 582.04, 868.17, 0.048, 0.000, -1.040, 12:38:01.100, 1587811081100
194, 1116.91, 423.04, 600.45, 856.84, 0.048, 0.000, -1.040, 12:38:01.100, 1587811081100
195, 1162.79, 466.45, 631.19, 849.04, 0.048, 0.000, -1.040, 12:38:01.116, 1587811081116
196, 1179.38, 491.70, 617.90, 855.00, 0.048, 0.000, -1.040, 12:38:01.116, 1587811081116
197, 1126.57, 437.30, 578.83, 869.12, 0.048, 0.000, -1.040, 12:38:01.117, 1587811081117
198, 1112.68, 412.93, 589.86, 863.56, 0.048, 0.000, -1.040, 12:38:01.117, 1587811081117
199, 1161.89, 462.76, 631.96, 852.91, 0.048, 0.000, -1.040, 12:38:01.130, 1587811081130
200, 1176.37, 486.95, 615.06, 861.24, 0.048, 0.000, -1.040, 12:38:01.130, 1587811081130
0, 1131.93, 444.12, 576.57, 868.04, 0.048, 0.000, -1.040, 12:38:01.131, 1587811081131
1, 1116.02, 416.94, 594.39, 859.39, 0.048, 0.000, -1.040, 12:38:01.144, 1587811081144
2, 1160.69, 465.86, 634.13, 850.49, 0.048, 0.000, -1.040, 12:38:01.144, 1587811081144
3, 1178.45, 485.23, 613.48, 859.05, 0.048, 0.000, -1.040, 12:38:01.160, 1587811081160
4, 1135.68, 440.18, 581.61, 864.02, 0.048, 0.000, -1.040, 12:38:01.160, 1587811081160
5, 1115.23, 411.17, 591.09, 862.45, 0.048, 0.000, -1.040, 12:38:01.175, 1587811081175
6, 1163.11, 465.15, 634.08, 859.71, 0.048, 0.000, -1.040, 12:38:01.175, 1587811081175
7, 1178.86, 485.33, 614.95, 865.20, 0.048, 0.000, -1.040, 12:38:01.176, 1587811081176
8, 1129.09, 440.28, 578.50, 874.41, 0.048, 0.000, -1.040, 12:38:01.176, 1587811081176
9, 1111.84, 410.01, 589.75, 862.49, 0.048, 0.000, -1.040, 12:38:01.191, 1587811081191
10, 1159.49, 460.74, 631.39, 853.90, 0.048, 0.000, -1.040, 12:38:01.191, 1587811081191
11, 1176.35, 486.27, 613.28, 864.29, 0.048, 0.000, -1.040, 12:38:01.191, 1587811081191
12, 1128.39, 427.36, 563.59, 874.43, 0.048, 0.000, -1.040, 12:38:01.191, 1587811081191
13, 1111.71, 399.29, 578.48, 863.17, 0.048, 0.000, -1.040, 12:38:01.204, 1587811081204
14, 1154.33, 438.87, 613.34, 845.86, 0.048, 0.000, -1.040, 12:38:01.204, 1587811081204
15, 1172.56, 470.94, 606.56, 852.48, 0.048, 0.000, -1.040, 12:38:01.237, 1587811081237
16, 1128.70, 425.63, 566.60, 862.93, 0.048, 0.000, -1.040, 12:38:01.237, 1587811081237
17, 1113.34, 408.16, 583.11, 853.45, 0.048, 0.000, -1.040, 12:38:01.237, 1587811081237
18, 1163.14, 452.79, 621.41, 844.72, 0.048, 0.000, -1.040, 12:38:01.237, 1587811081237
19, 1181.05, 480.66, 610.78, 853.73, 0.048, 0.000, -1.040, 12:38:01.239, 1587811081239
20, 1130.86, 435.47, 566.01, 863.15, 0.048, 0.000, -1.040, 12:38:01.239, 1587811081239
21, 1113.90, 404.22, 584.52, 852.29, 0.048, 0.000, -1.040, 12:38:01.239, 1587811081239
22, 1164.46, 452.20, 620.43, 848.87, 0.048, 0.000, -1.040, 12:38:01.239, 1587811081239
23, 1174.23, 476.53, 609.23, 854.70, 0.048, 0.000, -1.040, 12:38:01.249, 1587811081249
24, 1126.68, 427.29, 568.37, 861.59, 0.048, 0.000, -1.040, 12:38:01.249, 1587811081249
25, 1113.02, 401.45, 584.31, 848.39, 0.048, 0.000, -1.040, 12:38:01.265, 1587811081265
26, 1162.75, 444.74, 620.05, 841.12, 0.048, 0.000, -1.040, 12:38:01.265, 1587811081265
27, 1178.50, 476.81, 610.57, 851.18, 0.048, 0.000, -1.040, 12:38:01.297, 1587811081297
28, 1135.08, 430.10, 568.49, 862.57, 0.048, 0.000, -1.040, 12:38:01.297, 1587811081297
29, 1115.71, 403.80, 584.12, 851.61, 0.048, 0.000, -1.040, 12:38:01.298, 1587811081298
30, 1159.85, 451.21, 626.75, 849.34, 0.048, 0.000, -1.040, 12:38:01.298, 1587811081298
31, 1178.69, 470.30, 607.32, 852.28, 0.048, 0.000, -1.040, 12:38:01.299, 1587811081299
32, 1132.90, 425.91, 567.81, 861.05, 0.048, 0.000, -1.040, 12:38:01.299, 1587811081299
33, 1110.68, 394.70, 579.39, 850.28, 0.048, 0.000, -1.040, 12:38:01.299, 1587811081299
34, 1154.70, 450.02, 616.29, 844.52, 0.048, 0.000, -1.040, 12:38:01.299, 1587811081299
35, 1173.24, 473.30, 604.00, 857.75, 0.048, 0.000, -1.040, 12:38:01.310, 1587811081310
36, 1131.85, 425.55, 571.08, 861.57, 0.048, 0.000, -1.040, 12:38:01.310, 1587811081310
37, 1114.02, 398.43, 581.92, 853.21, 0.048, 0.000, -1.040, 12:38:01.325, 1587811081325
38, 1157.55, 444.54, 619.61, 842.68, 0.048, 0.000, -1.040, 12:38:01.325, 1587811081325
39, 1173.37, 469.54, 601.34, 858.24, 0.048, 0.000, -1.040, 12:38:01.357, 1587811081357
40, 1128.62, 423.21, 564.82, 862.04, 0.048, 0.000, -1.040, 12:38:01.357, 1587811081357
41, 1108.58, 393.07, 580.62, 849.61, 0.048, 0.000, -1.040, 12:38:01.357, 1587811081357
42, 1156.57, 437.85, 609.66, 843.83, 0.048, 0.000, -1.040, 12:38:01.357, 1587811081357
43, 1174.49, 469.38, 603.33, 853.30, 0.048, 0.000, -1.040, 12:38:01.358, 1587811081358
44, 1125.83, 417.08, 563.10, 861.17, 0.048, 0.000, -1.040, 12:38:01.358, 1587811081358
45, 1110.29, 392.23, 574.79, 855.60, 0.048, 0.000, -1.040, 12:38:01.359, 1587811081359
46, 1154.61, 443.91, 615.99, 846.54, 0.048, 0.000, -1.040, 12:38:01.359, 1587811081359
47, 1175.66, 468.21, 600.98, 855.42, 0.048, 0.000, -1.040, 12:38:01.370, 1587811081370
48, 1125.41, 426.19, 564.26, 860.07, 0.048, 0.000, -1.040, 12:38:01.370, 1587811081370
49, 1112.15, 394.01, 581.14, 847.59, 0.048, 0.000, -1.040, 12:38:01.384, 1587811081384
50, 1158.60, 441.16, 616.93, 842.07, 0.048, 0.000, -1.040, 12:38:01.384, 1587811081384
51, 1179.36, 468.93, 602.99, 850.89, 0.048, 0.000, -1.040, 12:38:01.400, 1587811081400
52, 1131.53, 424.24, 568.89, 863.97, 0.048, 0.000, -1.040, 12:38:01.400, 1587811081400
53, 1113.20, 391.34, 575.96, 853.32, 0.048, 0.000, -1.040, 12:38:01.401, 1587811081401
54, 1158.28, 449.68, 624.90, 840.80, 0.048, 0.000, -1.040, 12:38:01.401, 1587811081401
55, 1181.83, 472.15, 610.93, 852.24, 0.048, 0.000, -1.040, 12:38:01.414, 1587811081414
56, 1128.05, 426.41, 571.06, 859.24, 0.048, 0.000, -1.040, 12:38:01.414, 1587811081414
57, 1110.60, 400.75, 582.63, 855.13, 0.048, 0.000, -1.040, 12:38:01.430, 1587811081430
58, 1158.44, 443.70, 616.96, 840.91, 0.048, 0.000, -1.040, 12:38:01.430, 1587811081430
59, 1175.75, 473.35, 606.79, 850.88, 0.048, 0.000, -1.040, 12:38:01.431, 1587811081431
60, 1126.87, 425.61, 561.58, 860.73, 0.048, 0.000, -1.040, 12:38:01.431, 1587811081431
61, 1110.95, 393.22, 575.38, 851.92, 0.048, 0.000, -1.040, 12:38:01.444, 1587811081444
62, 1159.27, 445.47, 617.84, 849.96, 0.048, 0.000, -1.040, 12:38:01.444, 1587811081444
63, 1177.49, 479.27, 604.68, 858.67, 0.048, 0.000, -1.040, 12:38:01.460, 1587811081460
64, 1124.92, 426.18, 566.72, 863.33, 0.048, 0.000, -1.040, 12:38:01.460, 1587811081460
65, 1110.73, 404.14, 583.07, 857.82, 0.048, 0.000, -1.040, 12:38:01.461, 1587811081461
66, 1160.29, 448.52, 618.86, 846.00, 0.048, 0.000, -1.040, 12:38:01.461, 1587811081461
67, 1173.85, 475.77, 607.41, 858.40, 0.048, 0.000, -1.040, 12:38:01.475, 1587811081475
68, 1131.11, 427.94, 564.78, 865.86, 0.048, 0.000, -1.040, 12:38:01.475, 1587811081475
69, 1112.01, 404.96, 579.67, 857.97, 0.048, 0.000, -1.040, 12:38:01.490, 1587811081490
70, 1164.94, 448.27, 625.78, 847.44, 0.048, 0.000, -1.040, 12:38:01.490, 1587811081490
71, 1182.75, 470.52, 609.96, 855.26, 0.048, 0.000, -1.040, 12:38:01.491, 1587811081491
72, 1130.38, 427.32, 569.73, 861.36, 0.048, 0.000, -1.040, 12:38:01.491, 1587811081491
73, 1110.09, 395.61, 582.58, 848.39, 0.048, 0.000, -1.040, 12:38:01.505, 1587811081505
74, 1160.73, 448.27, 621.32, 839.82, 0.048, 0.000, -1.040, 12:38:01.505, 1587811081505
75, 1177.81, 477.90, 609.63, 852.21, 0.048, 0.000, -1.040, 12:38:01.520, 1587811081520
76, 1131.38, 428.90, 574.79, 857.70, 0.048, 0.000, -1.040, 12:38:01.520, 1587811081520
77, 1117.84, 400.49, 587.75, 853.72, 0.048, 0.000, -1.040, 12:38:01.521, 1587811081521
78, 1160.16, 447.96, 622.75, 841.28, 0.048, 0.000, -1.040, 12:38:01.521, 1587811081521
79, 1181.84, 476.35, 609.05, 848.87, 0.048, 0.000, -1.040, 12:38:01.535, 1587811081535
80, 1134.41, 430.63, 569.44, 860.21, 0.048, 0.000, -1.040, 12:38:01.535, 1587811081535
81, 1117.96, 405.73, 589.71, 858.66, 0.048, 0.000, -1.040, 12:38:01.550, 1587811081550
82, 1161.87, 454.71, 627.10, 847.08, 0.048, 0.000, -1.040, 12:38:01.550, 1587811081550
83, 1179.40, 485.22, 607.31, 853.15, 0.048, 0.000, -1.040, 12:38:01.551, 1587811081551
84, 1128.66, 434.21, 567.62, 861.96, 0.048, 0.000, -1.040, 12:38:01.551, 1587811081551
85, 1113.04, 409.74, 588.80, 856.02, 0.048, 0.000, -1.040, 12:38:01.564, 1587811081564
86, 1156.73, 454.62, 622.95, 839.56, 0.048, 0.000, -1.040, 12:38:01.564, 1587811081564
87, 1175.49, 479.13, 609.55, 851.10, 0.048, 0.000, -1.040, 12:38:01.580, 1587811081580
88, 1133.80, 438.65, 575.84, 864.76, 0.048, 0.000, -1.040, 12:38:01.580, 1587811081580
89, 1111.85, 405.45, 587.83, 855.29, 0.048, 0.000, -1.040, 12:38:01.581, 1587811081581
90, 1156.09, 450.93, 620.23, 844.48, 0.048, 0.000, -1.040, 12:38:01.581, 1587811081581
91, 1168.24, 476.09, 606.36, 852.35, 0.048, 0.000, -1.040, 12:38:01.595, 1587811081595
92, 1125.13, 435.04, 572.85, 863.53, 0.048, 0.000, -1.040, 12:38:01.595, 1587811081595
93, 1114.48, 411.22, 589.30, 854.21, 0.048, 0.000, -1.040, 12:38:01.611, 1587811081611
94, 1153.45, 455.93, 631.03, 850.81, 0.048, 0.000, -1.040, 12:38:01.611, 1587811081611
95, 1171.31, 483.00, 613.02, 855.43, 0.048, 0.000, -1.040, 12:38:01.612, 1587811081612
96, 1128.73, 439.38, 576.67, 864.47, 0.048, 0.000, -1.040, 12:38:01.612, 1587811081612
97, 1113.88, 413.77, 588.96, 861.20, 0.048, 0.000, -1.040, 12:38:01.625, 1587811081625
98, 1159.90, 458.25, 628.67, 847.75, 0.048, 0.000, -1.040, 12:38:01.625, 1587811081625
99, 1171.75, 482.84, 609.77, 851.53, 0.048, 0.000, -1.040, 12:38:01.640, 1587811081640
100, 1125.74, 434.36, 576.67, 863.55, 0.048, 0.000, -1.040, 12:38:01.640, 1587811081640
101, 1112.77, 411.36, 590.34, 858.19, 0.048, 0.000, -1.040, 12:38:01.641, 1587811081641
102, 1155.58, 456.46, 625.43, 846.50, 0.048, 0.000, -1.040, 12:38:01.641, 1587811081641
103, 1174.48, 483.03, 614.03, 850.58, 0.048, 0.000, -1.040, 12:38:01.656, 1587811081656
104, 1129.61, 435.36, 576.66, 861.70, 0.048, 0.000, -1.040, 12:38:01.656, 1587811081656
105, 1113.28, 406.55, 587.21, 857.82, 0.048, 0.000, -1.040, 12:38:01.670, 1587811081670
106, 1157.90, 456.98, 624.37, 838.29, 0.048, 0.000, -1.040, 12:38:01.670, 1587811081670
107, 1167.83, 483.57, 604.44, 851.14, 0.048, 0.000, -1.040, 12:38:01.671, 1587811081671
108, 1132.05, 442.48, 572.41, 865.37, 0.048, 0.000, -1.040, 12:38:01.671, 1587811081671
109, 1112.62, 411.49, 581.38, 858.86, 0.048, 0.000, -1.040, 12:38:01.685, 1587811081685
110, 1161.78, 459.15, 623.90, 851.27, 0.048, 0.000, -1.040, 12:38:01.685, 1587811081685
111, 1174.15, 486.83, 612.03, 859.12, 0.048, 0.000, -1.040, 12:38:01.700, 1587811081700
112, 1132.26, 440.70, 569.57, 871.11, 0.048, 0.000, -1.040, 12:38:01.700, 1587811081700
113, 1119.95, 416.45, 588.93, 861.80, 0.048, 0.000, -1.040, 12:38:01.701, 1587811081701
114, 1161.29, 457.39, 622.25, 848.02, 0.048, 0.000, -1.040, 12:38:01.701, 1587811081701
115, 1178.41, 480.50, 604.92, 856.91, 0.048, 0.000, -1.040, 12:38:01.716, 1587811081716
116, 1130.01, 437.02, 565.73, 867.20, 0.048, 0.000, -1.040, 12:38:01.716, 1587811081716
117, 1111.60, 412.55, 582.35, 859.29, 0.048, 0.000, -1.040, 12:38:01.730, 1587811081730
118, 1161.53, 451.27, 618.98, 846.54, 0.048, 0.000, -1.040, 12:38:01.730, 1587811081730
119, 1178.09, 481.92, 608.72, 854.25, 0.048, 0.000, -1.040, 12:38:01.732, 1587811081732
120, 1132.04, 439.77, 572.21, 867.56, 0.048, 0.000, -1.040, 12:38:01.732, 1587811081732
121, 1119.71, 411.96, 585.28, 859.19, 0.048, 0.000, -1.040, 12:38:01.744, 1587811081744
122, 1168.62, 459.59, 616.61, 847.00, 0.048, 0.000, -1.040, 12:38:01.744, 1587811081744
123, 1184.07, 487.44, 609.10, 857.90, 0.048, 0.000, -1.040, 12:38:01.761, 1587811081761
124, 1140.64, 441.58, 570.39, 867.77, 0.048, 0.000, -1.040, 12:38:01.761, 1587811081761
125, 1126.21, 419.34, 588.70, 857.72, 0.048, 0.000, -1.040, 12:38:01.761, 1587811081761
126, 1163.46, 458.59, 623.88, 847.07, 0.048, -0.016, -1.024, 12:38:01.761, 1587811081761
127, 1182.25, 484.86, 609.25, 854.75, 0.048, -0.016, -1.024, 12:38:01.791, 1587811081791
128, 1133.04, 435.03, 563.06, 868.81, 0.048, -0.016, -1.024, 12:38:01.791, 1587811081791
129, 1116.43, 413.90, 587.13, 861.22, 0.048, -0.016, -1.024, 12:38:01.792, 1587811081792
130, 1166.48, 460.25, 628.14, 848.54, 0.048, -0.016, -1.024, 12:38:01.792, 1587811081792
131, 1186.34, 487.83, 613.20, 856.44, 0.048, -0.016, -1.024, 12:38:01.792, 1587811081792
132, 1143.16, 446.33, 576.27, 869.12, 0.048, -0.016, -1.024, 12:38:01.792, 1587811081792
133, 1124.29, 417.90, 583.95, 860.70, 0.048, -0.016, -1.024, 12:38:01.805, 1587811081805
134, 1168.86, 457.26, 624.01, 843.60, 0.048, -0.016, -1.024, 12:38:01.805, 1587811081805
135, 1181.34, 484.03, 602.81, 854.98, 0.048, -0.016, -1.024, 12:38:01.820, 1587811081820
136, 1135.10, 439.73, 572.78, 863.69, 0.048, -0.016, -1.024, 12:38:01.820, 1587811081820
137, 1117.09, 410.81, 584.49, 856.51, 0.048, -0.016, -1.024, 12:38:01.821, 1587811081821
138, 1161.10, 456.15, 623.46, 848.10, 0.048, -0.016, -1.024, 12:38:01.821, 1587811081821
139, 1176.21, 485.78, 605.49, 856.55, 0.048, -0.016, -1.024, 12:38:01.834, 1587811081834
140, 1131.16, 444.65, 568.62, 867.30, 0.048, -0.016, -1.024, 12:38:01.834, 1587811081834
141, 1111.89, 415.61, 587.57, 855.46, 0.048, -0.016, -1.024, 12:38:01.850, 1587811081850
142, 1159.05, 457.93, 620.29, 843.94, 0.048, -0.016, -1.024, 12:38:01.850, 1587811081850
143, 1177.57, 491.93, 613.40, 855.06, 0.048, -0.016, -1.024, 12:38:01.851, 1587811081851
144, 1139.23, 444.60, 576.73, 863.98, 0.048, -0.016, -1.024, 12:38:01.851, 1587811081851
145, 1121.43, 421.20, 593.61, 859.88, 0.048, -0.016, -1.024, 12:38:01.865, 1587811081865
146, 1163.56, 469.66, 636.23, 851.54, 0.048, 0.000, -1.024, 12:38:01.865, 1587811081865
147, 1182.50, 501.93, 617.90, 866.02, 0.048, 0.000, -1.024, 12:38:01.880, 1587811081880
148, 1131.16, 443.07, 574.91, 868.02, 0.048, 0.000, -1.024, 12:38:01.880, 1587811081880
149, 1113.89, 415.76, 587.13, 861.90, 0.048, 0.000, -1.024, 12:38:01.881, 1587811081881
150, 1156.55, 460.33, 626.07, 846.96, 0.048, 0.000, -1.024, 12:38:01.881, 1587811081881
151, 1176.22, 490.03, 614.17, 857.54, 0.048, 0.000, -1.024, 12:38:01.895, 1587811081895
152, 1134.29, 442.03, 572.75, 867.25, 0.048, 0.000, -1.024, 12:38:01.895, 1587811081895
153, 1116.65, 419.88, 591.20, 857.26, 0.048, 0.000, -1.024, 12:38:01.910, 1587811081910
154, 1167.47, 470.43, 629.02, 853.79, 0.048, 0.000, -1.024, 12:38:01.910, 1587811081910
155, 1186.31, 498.26, 614.23, 859.62, 0.048, 0.000, -1.024, 12:38:01.911, 1587811081911
156, 1138.26, 447.58, 576.30, 866.03, 0.048, 0.000, -1.024, 12:38:01.911, 1587811081911
157, 1118.13, 423.39, 591.81, 856.03, 0.048, 0.000, -1.024, 12:38:01.924, 1587811081924
158, 1162.05, 470.20, 626.90, 849.22, 0.048, 0.000, -1.024, 12:38:01.924, 1587811081924
159, 1176.06, 491.21, 611.27, 857.76, 0.048, 0.000, -1.024, 12:38:01.941, 1587811081941
160, 1135.80, 449.14, 572.53, 870.89, 0.048, 0.000, -1.024, 12:38:01.941, 1587811081941
161, 1123.81, 424.45, 591.68, 858.92, 0.048, 0.000, -1.024, 12:38:01.941, 1587811081941
162, 1164.21, 474.17, 627.65, 848.07, 0.048, 0.000, -1.024, 12:38:01.941, 1587811081941
163, 1179.30, 499.34, 614.95, 857.93, 0.048, 0.000, -1.024, 12:38:01.954, 1587811081954
164, 1128.53, 450.00, 573.48, 865.50, 0.048, 0.000, -1.024, 12:38:01.954, 1587811081954
165, 1118.66, 425.25, 592.25, 858.65, 0.048, 0.000, -1.024, 12:38:01.971, 1587811081971
166, 1156.84, 461.76, 624.71, 848.17, 0.048, 0.000, -1.024, 12:38:01.971, 1587811081971
167, 1174.89, 490.81, 609.59, 852.64, 0.048, 0.000, -1.024, 12:38:01.972, 1587811081972
168, 1129.09, 444.17, 575.22, 864.86, 0.048, 0.000, -1.024, 12:38:01.972, 1587811081972
169, 1113.27, 420.87, 588.94, 861.31, 0.048, 0.000, -1.024, 12:38:01.985, 1587811081985
170, 1169.73, 472.61, 631.97, 847.45, 0.048, 0.000, -1.024, 12:38:01.985, 1587811081985
171, 1176.73, 498.73, 611.48, 861.31, 0.048, 0.000, -1.024, 12:38:02.000, 1587811082000
172, 1128.10, 449.28, 574.16, 862.32, 0.048, 0.000, -1.024, 12:38:02.000, 1587811082000
173, 1105.75, 422.31, 579.65, 849.21, 0.048, 0.000, -1.024, 12:38:02.001, 1587811082001
174, 1159.88, 469.97, 632.53, 844.48, 0.048, 0.000, -1.024, 12:38:02.001, 1587811082001
175, 1179.81, 498.44, 623.22, 857.14, 0.048, 0.000, -1.024, 12:38:02.014, 1587811082014
176, 1127.99, 452.10, 579.75, 872.60, 0.048, 0.000, -1.024, 12:38:02.014, 1587811082014
177, 1108.12, 422.45, 587.52, 863.62, 0.048, 0.000, -1.024, 12:38:02.030, 1587811082030
178, 1153.61, 464.37, 622.43, 853.82, 0.048, 0.000, -1.024, 12:38:02.030, 1587811082030
179, 1172.70, 488.91, 606.44, 862.46, 0.048, 0.000, -1.024, 12:38:02.031, 1587811082031
180, 1124.76, 444.34, 572.19, 869.26, 0.048, 0.000, -1.024, 12:38:02.031, 1587811082031
181, 1107.09, 419.33, 589.04, 858.87, 0.048, 0.000, -1.024, 12:38:02.045, 1587811082045
182, 1156.51, 470.63, 630.26, 847.03, 0.048, 0.000, -1.024, 12:38:02.046, 1587811082046
183, 1171.97, 497.25, 615.50, 855.03, 0.048, 0.000, -1.024, 12:38:02.060, 1587811082060
184, 1126.46, 454.05, 577.93, 867.02, 0.048, 0.000, -1.024, 12:38:02.060, 1587811082060
185, 1112.19, 428.35, 586.27, 858.34, 0.048, 0.000, -1.024, 12:38:02.061, 1587811082061
186, 1158.31, 475.33, 631.99, 843.79, 0.048, 0.000, -1.024, 12:38:02.061, 1587811082061
187, 1172.22, 495.55, 613.83, 853.17, 0.048, 0.000, -1.024, 12:38:02.075, 1587811082075
188, 1125.06, 453.75, 572.72, 867.17, 0.048, 0.000, -1.024, 12:38:02.075, 1587811082075
189, 1109.58, 428.65, 594.85, 858.36, 0.048, 0.000, -1.024, 12:38:02.090, 1587811082090
190, 1157.04, 471.14, 632.48, 851.95, 0.048, 0.000, -1.024, 12:38:02.090, 1587811082090
191, 1176.61, 502.41, 617.58, 858.10, 0.048, 0.000, -1.024, 12:38:02.091, 1587811082091
192, 1127.65, 455.44, 584.00, 867.52, 0.048, 0.000, -1.024, 12:38:02.091, 1587811082091
193, 1110.40, 425.50, 592.50, 863.36, 0.048, 0.000, -1.024, 12:38:02.104, 1587811082104
194, 1157.51, 470.60, 629.40, 852.09, 0.048, 0.000, -1.024, 12:38:02.104, 1587811082104
195, 1174.64, 501.77, 618.63, 866.12, 0.048, 0.000, -1.024, 12:38:02.121, 1587811082121
196, 1129.72, 451.84, 577.09, 865.48, 0.048, 0.000, -1.024, 12:38:02.121, 1587811082121
197, 1109.50, 425.82, 594.18, 859.39, 0.048, 0.000, -1.024, 12:38:02.122, 1587811082122
198, 1153.90, 468.47, 630.39, 847.54, 0.048, 0.000, -1.024, 12:38:02.122, 1587811082122
199, 1168.60, 493.65, 613.04, 857.25, 0.048, 0.000, -1.024, 12:38:02.135, 1587811082135
200, 1122.67, 447.00, 572.23, 864.63, 0.048, 0.000, -1.024, 12:38:02.135, 1587811082135
0, 1109.50, 420.54, 585.11, 859.86, 0.048, 0.000, -1.024, 12:38:02.136, 1587811082136
1, 1153.38, 470.52, 630.44, 854.50, 0.048, 0.000, -1.024, 12:38:02.150, 1587811082150
2, 1176.46, 497.57, 614.73, 860.40, 0.048, 0.000, -1.024, 12:38:02.150, 1587811082150
3, 1124.97, 450.88, 578.56, 869.08, 0.048, 0.000, -1.024, 12:38:02.165, 1587811082165
4, 1107.78, 428.10, 593.66, 867.85, 0.048, 0.000, -1.024, 12:38:02.165, 1587811082165
5, 1156.16, 475.70, 632.71, 854.17, 0.048, 0.000, -1.024, 12:38:02.166, 1587811082166
6, 1174.37, 500.67, 622.79, 864.08, 0.048, 0.000, -1.040, 12:38:02.166, 1587811082166
7, 1123.56, 449.65, 576.95, 874.38, 0.048, 0.000, -1.040, 12:38:02.181, 1587811082181
8, 1109.69, 424.31, 595.95, 864.04, 0.048, 0.000, -1.040, 12:38:02.181, 1587811082181
9, 1156.47, 468.34, 626.69, 853.30, 0.048, 0.000, -1.040, 12:38:02.195, 1587811082195
10, 1175.85, 497.64, 618.66, 858.31, 0.048, 0.000, -1.040, 12:38:02.195, 1587811082195
11, 1127.95, 448.82, 577.72, 865.13, 0.048, 0.000, -1.040, 12:38:02.196, 1587811082196
12, 1114.12, 425.62, 595.16, 856.18, 0.048, 0.000, -1.040, 12:38:02.196, 1587811082196
13, 1159.35, 475.60, 634.98, 854.48, 0.048, 0.000, -1.040, 12:38:02.209, 1587811082209
14, 1181.22, 505.31, 621.91, 861.75, 0.048, 0.000, -1.040, 12:38:02.209, 1587811082209
15, 1135.17, 456.74, 581.49, 872.27, 0.048, 0.000, -1.040, 12:38:02.226, 1587811082226
16, 1114.64, 429.95, 594.86, 862.79, 0.048, 0.000, -1.040, 12:38:02.226, 1587811082226
17, 1157.55, 473.47, 631.92, 846.49, 0.048, 0.000, -1.040, 12:38:02.227, 1587811082227
18, 1177.89, 500.54, 617.62, 861.23, 0.048, 0.000, -1.040, 12:38:02.227, 1587811082227
19, 1133.71, 452.92, 575.81, 872.58, 0.048, 0.000, -1.040, 12:38:02.239, 1587811082239
20, 1111.42, 421.91, 592.36, 867.11, 0.048, 0.000, -1.040, 12:38:02.239, 1587811082239
21, 1161.78, 473.04, 635.01, 855.55, 0.048, 0.000, -1.040, 12:38:02.256, 1587811082256
22, 1179.75, 499.74, 618.56, 863.77, 0.048, 0.000, -1.040, 12:38:02.256, 1587811082256
23, 1134.49, 452.53, 579.14, 874.42, 0.048, 0.000, -1.040, 12:38:02.256, 1587811082256
24, 1118.39, 426.49, 595.37, 864.85, 0.048, 0.000, -1.040, 12:38:02.256, 1587811082256
25, 1161.50, 471.89, 630.50, 852.47, 0.048, 0.000, -1.040, 12:38:02.269, 1587811082269
26, 1178.85, 495.70, 620.81, 863.48, 0.048, 0.000, -1.040, 12:38:02.269, 1587811082269
27, 1139.28, 448.78, 579.17, 869.77, 0.048, 0.000, -1.040, 12:38:02.286, 1587811082286
28, 1119.33, 427.09, 599.07, 861.77, 0.048, 0.000, -1.040, 12:38:02.286, 1587811082286
29, 1165.10, 470.22, 634.97, 849.82, 0.048, 0.000, -1.040, 12:38:02.287, 1587811082287
30, 1186.11, 491.94, 614.09, 859.47, 0.048, 0.000, -1.040, 12:38:02.287, 1587811082287
31, 1138.08, 451.78, 575.03, 869.24, 0.048, 0.000, -1.040, 12:38:02.299, 1587811082299
32, 1119.69, 421.45, 591.75, 858.82, 0.048, 0.000, -1.040, 12:38:02.299, 1587811082299
33, 1160.38, 469.34, 630.67, 850.86, 0.048, 0.000, -1.040, 12:38:02.315, 1587811082315
34, 1178.17, 488.71, 612.89, 858.19, 0.048, 0.000, -1.040, 12:38:02.315, 1587811082315
35, 1133.91, 442.53, 572.59, 865.00, 0.048, 0.000, -1.040, 12:38:02.316, 1587811082316
36, 1116.52, 416.37, 587.09, 860.89, 0.048, 0.000, -1.040, 12:38:02.316, 1587811082316
37, 1158.34, 463.71, 629.64, 849.45, 0.048, 0.000, -1.040, 12:38:02.346, 1587811082346
38, 1174.82, 495.62, 615.23, 855.66, 0.048, 0.000, -1.040, 12:38:02.346, 1587811082346
39, 1136.79, 447.83, 579.98, 867.80, 0.048, 0.000, -1.040, 12:38:02.346, 1587811082346
40, 1122.36, 429.16, 597.71, 861.63, 0.048, 0.000, -1.040, 12:38:02.346, 1587811082346
41, 1168.09, 468.45, 632.94, 848.86, 0.048, 0.000, -1.040, 12:38:02.347, 1587811082347
42, 1184.70, 496.52, 619.13, 856.61, 0.048, 0.000, -1.040, 12:38:02.347, 1587811082347
43, 1143.45, 452.87, 584.88, 870.25, 0.048, 0.000, -1.040, 12:38:02.360, 1587811082360
44, 1123.47, 427.06, 601.78, 862.90, 0.048, 0.000, -1.040, 12:38:02.360, 1587811082360
45, 1173.81, 475.49, 642.21, 849.91, 0.048, 0.000, -1.040, 12:38:02.375, 1587811082375
46, 1189.20, 498.60, 623.25, 853.75, 0.048, 0.000, -1.040, 12:38:02.375, 1587811082375
47, 1142.19, 454.44, 582.85, 867.13, 0.048, 0.000, -1.040, 12:38:02.376, 1587811082376
48, 1126.27, 428.94, 600.21, 859.41, 0.048, 0.000, -1.040, 12:38:02.376, 1587811082376
49, 1173.41, 475.20, 643.91, 850.95, 0.048, 0.000, -1.040, 12:38:02.406, 1587811082406
50, 1185.56, 499.25, 618.93, 857.28, 0.048, 0.000, -1.040, 12:38:02.406, 1587811082406
51, 1141.97, 447.54, 580.37, 867.92, 0.048, 0.000, -1.040, 12:38:02.406, 1587811082406
52, 1126.78, 424.46, 596.91, 862.22, 0.048, 0.000, -1.040, 12:38:02.406, 1587811082406
53, 1172.78, 471.66, 635.01, 848.18, 0.048, 0.000, -1.040, 12:38:02.407, 1587811082407
54, 1188.29, 495.77, 617.19, 852.75, 0.048, 0.000, -1.040, 12:38:02.407, 1587811082407
55, 1138.33, 448.02, 572.64, 864.00, 0.048, 0.000, -1.040, 12:38:02.419, 1587811082419
56, 1119.62, 419.74, 587.24, 854.91, 0.048, 0.000, -1.040, 12:38:02.419, 1587811082419
57, 1166.72, 468.71, 627.63, 847.20, 0.048, 0.000, -1.040, 12:38:02.436, 1587811082436
58, 1193.96, 499.25, 622.15, 854.26, 0.048, 0.000, -1.040, 12:38:02.436, 1587811082436
59, 1144.62, 451.41, 581.11, 868.59, 0.048, 0.000, -1.040, 12:38:02.437, 1587811082437
60, 1124.17, 425.06, 595.67, 864.66, 0.048, 0.000, -1.040, 12:38:02.437, 1587811082437
61, 1171.20, 466.61, 634.95, 855.89, 0.048, 0.000, -1.040, 12:38:02.449, 1587811082449
62, 1186.90, 495.49, 620.44, 859.99, 0.048, 0.000, -1.040, 12:38:02.449, 1587811082449
63, 1144.33, 455.37, 583.12, 865.09, 0.048, 0.000, -1.040, 12:38:02.466, 1587811082466
64, 1121.68, 424.33, 595.16, 858.65, 0.048, 0.000, -1.040, 12:38:02.466, 1587811082466
65, 1169.72, 474.21, 637.51, 849.86, 0.048, 0.000, -1.040, 12:38:02.466, 1587811082466
66, 1188.97, 496.53, 625.22, 863.20, 0.048, 0.000, -1.024, 12:38:02.466, 1587811082466
67, 1146.68, 450.27, 576.95, 865.83, 0.048, 0.000, -1.024, 12:38:02.480, 1587811082480
68, 1127.51, 424.76, 596.33, 861.62, 0.048, 0.000, -1.024, 12:38:02.480, 1587811082480
69, 1174.69, 468.62, 634.57, 847.86, 0.048, 0.000, -1.024, 12:38:02.495, 1587811082495
70, 1193.85, 497.87, 625.77, 856.31, 0.048, 0.000, -1.024, 12:38:02.495, 1587811082495
71, 1144.72, 445.68, 578.82, 865.66, 0.048, 0.000, -1.024, 12:38:02.496, 1587811082496
72, 1127.24, 418.35, 591.75, 860.54, 0.048, 0.000, -1.024, 12:38:02.496, 1587811082496
73, 1177.22, 473.13, 641.85, 852.38, 0.048, 0.000, -1.024, 12:38:02.510, 1587811082510
74, 1195.36, 503.51, 624.14, 860.55, 0.048, 0.000, -1.024, 12:38:02.510, 1587811082510
75, 1151.20, 454.85, 582.02, 869.62, 0.048, 0.000, -1.024, 12:38:02.525, 1587811082525
76, 1132.51, 424.44, 597.11, 857.97, 0.048, 0.000, -1.024, 12:38:02.525, 1587811082525
77, 1174.12, 466.31, 639.37, 849.89, 0.048, 0.000, -1.024, 12:38:02.526, 1587811082526
78, 1181.30, 486.74, 612.44, 853.37, 0.048, 0.000, -1.024, 12:38:02.526, 1587811082526
79, 1139.55, 446.25, 576.52, 865.63, 0.048, 0.000, -1.024, 12:38:02.541, 1587811082541
80, 1120.85, 419.41, 590.04, 854.83, 0.048, 0.000, -1.024, 12:38:02.541, 1587811082541
81, 1172.29, 462.37, 629.36, 846.88, 0.048, 0.000, -1.024, 12:38:02.555, 1587811082555
82, 1186.29, 493.01, 621.50, 850.83, 0.048, 0.000, -1.024, 12:38:02.555, 1587811082555
83, 1144.77, 446.24, 575.68, 858.97, 0.048, 0.000, -1.024, 12:38:02.556, 1587811082556
84, 1119.48, 419.16, 587.09, 853.21, 0.048, 0.000, -1.024, 12:38:02.556, 1587811082556
85, 1171.36, 462.12, 625.99, 840.93, 0.048, 0.000, -1.024, 12:38:02.569, 1587811082569
86, 1186.46, 488.76, 616.88, 851.62, 0.048, 0.000, -1.040, 12:38:02.569, 1587811082569
87, 1141.37, 443.46, 572.64, 858.61, 0.048, 0.000, -1.040, 12:38:02.585, 1587811082585
88, 1122.04, 413.21, 593.40, 851.48, 0.048, 0.000, -1.040, 12:38:02.585, 1587811082585
89, 1171.02, 464.98, 629.76, 848.36, 0.048, 0.000, -1.040, 12:38:02.586, 1587811082586
90, 1187.71, 488.20, 614.82, 857.69, 0.048, 0.000, -1.040, 12:38:02.586, 1587811082586
91, 1143.78, 444.64, 573.21, 867.08, 0.048, 0.000, -1.040, 12:38:02.599, 1587811082599
92, 1125.64, 418.04, 587.80, 860.32, 0.048, 0.000, -1.040, 12:38:02.599, 1587811082599
93, 1173.94, 461.74, 627.43, 847.10, 0.048, 0.000, -1.040, 12:38:02.616, 1587811082616
94, 1189.81, 487.99, 612.89, 856.26, 0.048, 0.000, -1.040, 12:38:02.616, 1587811082616
95, 1142.97, 439.70, 569.00, 864.57, 0.048, 0.000, -1.040, 12:38:02.617, 1587811082617
96, 1121.71, 413.00, 586.75, 857.59, 0.048, 0.000, -1.040, 12:38:02.617, 1587811082617
97, 1170.10, 454.79, 625.83, 848.49, 0.048, 0.000, -1.040, 12:38:02.630, 1587811082630
98, 1191.86, 490.07, 617.70, 858.11, 0.048, 0.000, -1.040, 12:38:02.630, 1587811082630
99, 1150.19, 448.67, 575.68, 863.56, 0.048, 0.000, -1.040, 12:38:02.646, 1587811082646
100, 1126.92, 409.54, 586.06, 854.39, 0.048, 0.000, -1.040, 12:38:02.646, 1587811082646
101, 1175.96, 461.89, 632.75, 844.10, 0.048, 0.000, -1.040, 12:38:02.647, 1587811082647
102, 1188.39, 486.16, 614.99, 855.42, 0.048, 0.000, -1.040, 12:38:02.647, 1587811082647
103, 1146.13, 438.70, 578.21, 863.46, 0.048, 0.000, -1.040, 12:38:02.659, 1587811082659
104, 1129.85, 415.26, 585.99, 853.82, 0.048, 0.000, -1.040, 12:38:02.659, 1587811082659
105, 1174.98, 454.83, 629.34, 842.98, 0.048, 0.000, -1.040, 12:38:02.675, 1587811082675
106, 1191.26, 488.23, 620.17, 855.51, 0.048, 0.000, -1.024, 12:38:02.675, 1587811082675
107, 1145.69, 433.81, 575.15, 861.63, 0.048, 0.000, -1.024, 12:38:02.676, 1587811082676
108, 1125.83, 407.08, 586.26, 854.16, 0.048, 0.000, -1.024, 12:38:02.676, 1587811082676
109, 1172.08, 449.80, 623.99, 847.07, 0.048, 0.000, -1.024, 12:38:02.690, 1587811082690
110, 1188.30, 478.47, 607.45, 856.13, 0.048, 0.000, -1.024, 12:38:02.690, 1587811082690
111, 1145.79, 435.47, 574.90, 861.43, 0.048, 0.000, -1.024, 12:38:02.705, 1587811082705
112, 1121.12, 403.72, 579.33, 856.47, 0.048, 0.000, -1.024, 12:38:02.705, 1587811082705
113, 1168.29, 456.52, 628.87, 848.35, 0.048, 0.000, -1.024, 12:38:02.706, 1587811082706
114, 1185.37, 478.17, 612.03, 855.83, 0.048, 0.000, -1.024, 12:38:02.706, 1587811082706
115, 1141.28, 428.89, 572.34, 863.77, 0.048, 0.000, -1.024, 12:38:02.720, 1587811082720
116, 1124.43, 402.96, 585.54, 851.49, 0.048, 0.000, -1.024, 12:38:02.720, 1587811082720
117, 1175.39, 457.28, 626.14, 843.47, 0.048, 0.000, -1.024, 12:38:02.735, 1587811082735
118, 1191.09, 482.25, 613.28, 853.67, 0.048, 0.000, -1.024, 12:38:02.735, 1587811082735
119, 1146.66, 433.41, 574.01, 860.23, 0.048, 0.000, -1.024, 12:38:02.736, 1587811082736
120, 1126.32, 407.32, 590.53, 856.09, 0.048, 0.000, -1.024, 12:38:02.736, 1587811082736
121, 1177.63, 454.30, 630.52, 843.02, 0.048, 0.000, -1.024, 12:38:02.749, 1587811082749
122, 1192.28, 482.74, 615.60, 850.58, 0.048, 0.000, -1.024, 12:38:02.750, 1587811082750
123, 1145.27, 432.87, 574.83, 862.00, 0.048, 0.000, -1.024, 12:38:02.765, 1587811082765
124, 1126.79, 410.30, 590.38, 858.81, 0.048, 0.000, -1.024, 12:38:02.765, 1587811082765
125, 1175.17, 463.58, 631.00, 851.05, 0.048, 0.000, -1.024, 12:38:02.766, 1587811082766
126, 1201.31, 486.86, 619.84, 856.10, 0.048, 0.000, -1.024, 12:38:02.766, 1587811082766
127, 1144.54, 438.24, 574.81, 865.73, 0.048, 0.000, -1.024, 12:38:02.780, 1587811082780
128, 1125.59, 410.44, 589.29, 858.41, 0.048, 0.000, -1.024, 12:38:02.780, 1587811082780
129, 1176.36, 453.13, 625.10, 846.25, 0.048, 0.000, -1.024, 12:38:02.796, 1587811082796
130, 1187.35, 478.23, 608.93, 850.85, 0.048, 0.000, -1.024, 12:38:02.796, 1587811082796
131, 1143.12, 432.89, 567.69, 864.15, 0.048, 0.000, -1.024, 12:38:02.797, 1587811082797
132, 1129.25, 407.20, 584.74, 851.80, 0.048, 0.000, -1.024, 12:38:02.797, 1587811082797
133, 1174.59, 455.79, 627.31, 844.14, 0.048, 0.000, -1.024, 12:38:02.810, 1587811082810
134, 1194.64, 483.93, 617.71, 857.98, 0.048, 0.000, -1.024, 12:38:02.810, 1587811082810
135, 1149.27, 443.17, 580.61, 872.06, 0.048, 0.000, -1.024, 12:38:02.842, 1587811082842
136, 1129.65, 412.34, 593.29, 861.73, 0.048, 0.000, -1.024, 12:38:02.842, 1587811082842
137, 1177.90, 459.86, 631.94, 848.56, 0.048, 0.000, -1.024, 12:38:02.842, 1587811082842
138, 1194.71, 485.12, 615.51, 854.15, 0.048, 0.000, -1.024, 12:38:02.842, 1587811082842
139, 1153.26, 434.32, 575.64, 865.34, 0.048, 0.000, -1.024, 12:38:02.843, 1587811082843
140, 1136.27, 413.75, 589.16, 863.06, 0.048, 0.000, -1.024, 12:38:02.843, 1587811082843
141, 1183.11, 463.41, 631.21, 850.86, 0.048, 0.000, -1.024, 12:38:02.844, 1587811082844
142, 1196.19, 488.30, 613.71, 857.23, 0.048, 0.000, -1.024, 12:38:02.844, 1587811082844
143, 1148.60, 444.13, 577.15, 871.11, 0.048, 0.000, -1.024, 12:38:02.855, 1587811082855
144, 1133.39, 411.93, 588.63, 866.63, 0.048, 0.000, -1.024, 12:38:02.855, 1587811082855
145, 1178.69, 461.76, 628.04, 852.78, 0.048, 0.000, -1.024, 12:38:02.870, 1587811082870
146, 1194.54, 481.00, 613.39, 859.78, 0.048, 0.000, -1.024, 12:38:02.870, 1587811082870
147, 1145.79, 432.83, 571.41, 868.49, 0.048, 0.000, -1.024, 12:38:02.902, 1587811082902
148, 1131.23, 404.85, 585.22, 854.70, 0.048, 0.000, -1.024, 12:38:02.902, 1587811082902
149, 1173.63, 452.68, 627.05, 846.52, 0.048, 0.000, -1.024, 12:38:02.903, 1587811082903
150, 1194.37, 487.18, 618.84, 856.70, 0.048, 0.000, -1.024, 12:38:02.903, 1587811082903
151, 1144.67, 441.61, 574.67, 872.38, 0.048, 0.000, -1.024, 12:38:02.904, 1587811082904
152, 1133.08, 418.30, 592.56, 861.72, 0.048, 0.000, -1.024, 12:38:02.904, 1587811082904
153, 1179.66, 467.30, 636.87, 846.34, 0.048, 0.000, -1.024, 12:38:02.906, 1587811082906
154, 1197.17, 486.15, 614.86, 857.10, 0.048, 0.000, -1.024, 12:38:02.906, 1587811082906
155, 1153.56, 446.93, 581.60, 867.28, 0.048, 0.000, -1.024, 12:38:02.914, 1587811082914
156, 1133.20, 419.54, 600.01, 856.06, 0.048, 0.000, -1.024, 12:38:02.914, 1587811082914
157, 1175.83, 458.36, 633.96, 843.20, 0.048, 0.000, -1.024, 12:38:02.930, 1587811082930
158, 1193.67, 488.71, 619.71, 853.48, 0.048, 0.000, -1.024, 12:38:02.930, 1587811082930
159, 1147.32, 437.84, 575.31, 867.09, 0.048, 0.000, -1.024, 12:38:02.962, 1587811082962
160, 1132.03, 417.47, 594.06, 861.81, 0.048, 0.000, -1.024, 12:38:02.962, 1587811082962
161, 1178.85, 464.26, 638.20, 849.55, 0.048, 0.000, -1.024, 12:38:02.962, 1587811082962
162, 1195.86, 489.98, 622.92, 857.92, 0.048, 0.000, -1.024, 12:38:02.962, 1587811082962
163, 1149.58, 439.74, 579.77, 869.96, 0.048, 0.000, -1.024, 12:38:02.963, 1587811082963
164, 1131.66, 414.26, 600.39, 857.36, 0.048, 0.000, -1.024, 12:38:02.963, 1587811082963
165, 1172.94, 458.75, 631.76, 846.03, 0.048, 0.000, -1.024, 12:38:02.964, 1587811082964
166, 1197.30, 490.89, 619.77, 853.66, 0.048, 0.000, -1.024, 12:38:02.964, 1587811082964
167, 1150.52, 443.22, 582.52, 861.25, 0.048, 0.000, -1.024, 12:38:02.976, 1587811082976
168, 1133.24, 406.55, 594.10, 855.25, 0.048, 0.000, -1.024, 12:38:02.976, 1587811082976
169, 1178.11, 457.46, 638.10, 840.19, 0.048, 0.000, -1.024, 12:38:02.990, 1587811082990
170, 1199.46, 497.17, 629.28, 848.24, 0.048, 0.000, -1.024, 12:38:02.990, 1587811082990
171, 1151.41, 443.60, 588.26, 862.99, 0.048, 0.000, -1.024, 12:38:03.006, 1587811083006
172, 1131.02, 415.07, 600.52, 854.16, 0.048, 0.000, -1.024, 12:38:03.006, 1587811083006
173, 1180.71, 462.78, 645.92, 841.25, 0.048, 0.000, -1.024, 12:38:03.006, 1587811083006
174, 1199.77, 488.46, 632.14, 848.49, 0.048, 0.000, -1.024, 12:38:03.006, 1587811083006
175, 1150.48, 440.71, 588.49, 857.24, 0.048, 0.000, -1.024, 12:38:03.019, 1587811083019
176, 1134.20, 412.41, 602.20, 848.06, 0.048, 0.000, -1.024, 12:38:03.019, 1587811083019
177, 1178.64, 460.26, 646.95, 840.20, 0.048, 0.000, -1.024, 12:38:03.035, 1587811083035
178, 1195.12, 488.11, 629.95, 848.49, 0.048, 0.000, -1.024, 12:38:03.035, 1587811083035
179, 1146.69, 443.45, 590.69, 860.53, 0.048, 0.000, -1.024, 12:38:03.051, 1587811083051
180, 1132.14, 412.37, 603.24, 851.98, 0.048, 0.000, -1.024, 12:38:03.051, 1587811083051
181, 1172.06, 457.46, 646.22, 839.77, 0.048, 0.000, -1.024, 12:38:03.052, 1587811083052
182, 1189.97, 484.38, 628.02, 848.45, 0.048, 0.000, -1.024, 12:38:03.052, 1587811083052
183, 1147.26, 440.22, 592.79, 858.55, 0.048, 0.000, -1.024, 12:38:03.065, 1587811083065
184, 1132.10, 414.53, 604.64, 850.98, 0.048, 0.000, -1.024, 12:38:03.065, 1587811083065
185, 1172.92, 457.44, 639.20, 839.91, 0.048, 0.000, -1.024, 12:38:03.066, 1587811083066
186, 1190.76, 481.24, 622.03, 843.63, 0.048, 0.000, -1.024, 12:38:03.066, 1587811083066
187, 1142.51, 436.33, 582.38, 857.14, 0.048, 0.000, -1.024, 12:38:03.080, 1587811083080
188, 1121.88, 403.94, 592.00, 849.25, 0.048, 0.000, -1.024, 12:38:03.080, 1587811083080
189, 1169.63, 455.06, 633.92, 840.67, 0.048, 0.000, -1.024, 12:38:03.095, 1587811083095
190, 1192.49, 479.07, 621.30, 850.92, 0.048, 0.000, -1.024, 12:38:03.095, 1587811083095
191, 1141.90, 432.57, 579.86, 858.17, 0.048, 0.000, -1.024, 12:38:03.096, 1587811083096
192, 1121.38, 409.74, 595.68, 851.69, 0.048, 0.000, -1.024, 12:38:03.096, 1587811083096
193, 1171.25, 457.43, 636.52, 840.53, 0.048, 0.000, -1.024, 12:38:03.109, 1587811083109
194, 1191.54, 476.95, 617.29, 850.10, 0.048, 0.000, -1.024, 12:38:03.109, 1587811083109
195, 1147.09, 432.76, 582.05, 858.14, 0.048, 0.000, -1.024, 12:38:03.126, 1587811083126
196, 1124.90, 409.23, 585.48, 851.50, 0.048, 0.000, -1.024, 12:38:03.126, 1587811083126
197, 1172.24, 455.39, 630.03, 842.20, 0.048, 0.000, -1.024, 12:38:03.127, 1587811083127
198, 1192.38, 485.94, 620.98, 849.30, 0.048, 0.000, -1.024, 12:38:03.127, 1587811083127
199, 1148.47, 433.93, 576.14, 854.86, 0.048, 0.000, -1.024, 12:38:03.140, 1587811083140
200, 1131.02, 412.29, 591.28, 847.78, 0.048, 0.000, -1.024, 12:38:03.140, 1587811083140
0, 1174.22, 451.70, 631.90, 831.57, 0.048, 0.000, -1.024, 12:38:03.141, 1587811083141
1, 1194.40, 484.52, 618.49, 843.38, 0.048, 0.000, -1.024, 12:38:03.155, 1587811083155
2, 1149.03, 438.81, 581.14, 849.31, 0.048, 0.000, -1.024, 12:38:03.155, 1587811083155
3, 1133.02, 411.15, 591.58, 846.76, 0.048, 0.000, -1.024, 12:38:03.170, 1587811083170
4, 1176.74, 451.50, 630.38, 838.03, 0.048, 0.000, -1.024, 12:38:03.170, 1587811083170
5, 1191.86, 479.23, 616.91, 849.80, 0.048, 0.000, -1.024, 12:38:03.171, 1587811083171
6, 1145.01, 436.17, 574.76, 861.38, 0.048, 0.000, -1.040, 12:38:03.171, 1587811083171
7, 1132.71, 410.78, 588.70, 852.01, 0.048, 0.000, -1.040, 12:38:03.184, 1587811083184
8, 1177.11, 457.05, 631.08, 843.93, 0.048, 0.000, -1.040, 12:38:03.184, 1587811083184
9, 1194.28, 482.41, 615.61, 850.26, 0.048, 0.000, -1.040, 12:38:03.200, 1587811083200
10, 1151.05, 442.23, 582.33, 862.83, 0.048, 0.000, -1.040, 12:38:03.200, 1587811083200
11, 1128.86, 413.48, 595.44, 852.35, 0.048, 0.000, -1.040, 12:38:03.201, 1587811083201
12, 1177.86, 458.78, 636.11, 844.51, 0.048, 0.000, -1.040, 12:38:03.201, 1587811083201
13, 1195.52, 483.15, 617.32, 855.48, 0.048, 0.000, -1.040, 12:38:03.215, 1587811083215
14, 1149.25, 439.31, 579.10, 861.73, 0.048, 0.000, -1.040, 12:38:03.215, 1587811083215
15, 1132.98, 407.13, 591.93, 850.66, 0.048, 0.000, -1.040, 12:38:03.231, 1587811083231
16, 1174.35, 452.34, 628.84, 840.65, 0.048, 0.000, -1.040, 12:38:03.231, 1587811083231
17, 1193.98, 484.73, 616.56, 851.24, 0.048, 0.000, -1.040, 12:38:03.232, 1587811083232
18, 1151.55, 443.26, 578.40, 854.39, 0.048, 0.000, -1.040, 12:38:03.232, 1587811083232
19, 1131.43, 407.00, 588.25, 857.57, 0.048, 0.000, -1.040, 12:38:03.244, 1587811083244
20, 1174.18, 454.97, 627.30, 847.69, 0.048, 0.000, -1.040, 12:38:03.244, 1587811083244
21, 1196.46, 485.76, 615.65, 850.22, 0.048, 0.000, -1.040, 12:38:03.261, 1587811083261
22, 1153.06, 440.80, 580.53, 855.71, 0.048, 0.000, -1.040, 12:38:03.261, 1587811083261
23, 1133.03, 408.99, 587.51, 851.87, 0.048, 0.000, -1.040, 12:38:03.262, 1587811083262
24, 1179.80, 458.48, 630.33, 841.72, 0.048, 0.000, -1.040, 12:38:03.262, 1587811083262
25, 1196.28, 487.51, 622.83, 849.34, 0.048, 0.000, -1.040, 12:38:03.275, 1587811083275
26, 1150.08, 440.85, 577.34, 858.62, 0.048, 0.000, -1.040, 12:38:03.275, 1587811083275
27, 1131.34, 412.85, 593.86, 852.61, 0.048, 0.000, -1.040, 12:38:03.290, 1587811083290
28, 1172.51, 457.06, 630.66, 844.14, 0.048, 0.000, -1.040, 12:38:03.290, 1587811083290
29, 1190.45, 477.39, 614.78, 851.82, 0.048, 0.000, -1.040, 12:38:03.291, 1587811083291
30, 1142.44, 433.35, 576.09, 858.54, 0.048, 0.000, -1.040, 12:38:03.291, 1587811083291
31, 1123.37, 408.80, 594.21, 852.37, 0.048, 0.000, -1.040, 12:38:03.306, 1587811083306
32, 1172.56, 453.13, 628.81, 843.16, 0.048, 0.000, -1.040, 12:38:03.306, 1587811083306
33, 1190.88, 481.54, 621.01, 852.81, 0.048, 0.000, -1.040, 12:38:03.320, 1587811083320
34, 1146.15, 437.59, 581.04, 866.58, 0.048, 0.000, -1.040, 12:38:03.320, 1587811083320
35, 1130.22, 410.94, 593.45, 851.07, 0.048, 0.000, -1.040, 12:38:03.321, 1587811083321
36, 1173.70, 456.13, 629.68, 846.36, 0.048, 0.000, -1.040, 12:38:03.321, 1587811083321
37, 1193.35, 481.01, 612.55, 847.06, 0.048, 0.000, -1.040, 12:38:03.336, 1587811083336
38, 1143.94, 429.98, 569.98, 855.23, 0.048, 0.000, -1.040, 12:38:03.336, 1587811083336
39, 1128.76, 400.55, 580.49, 849.69, 0.048, 0.000, -1.040, 12:38:03.350, 1587811083350
40, 1174.96, 450.25, 624.62, 842.50, 0.048, 0.000, -1.040, 12:38:03.350, 1587811083350
41, 1194.02, 477.29, 607.90, 849.21, 0.048, 0.000, -1.040, 12:38:03.351, 1587811083351
42, 1151.28, 430.76, 571.09, 856.86, 0.048, 0.000, -1.040, 12:38:03.351, 1587811083351
43, 1136.12, 406.47, 588.42, 853.30, 0.048, 0.000, -1.040, 12:38:03.365, 1587811083365
44, 1179.58, 451.67, 627.98, 844.43, 0.048, 0.000, -1.040, 12:38:03.365, 1587811083365
45, 1194.81, 480.01, 611.36, 853.55, 0.048, 0.000, -1.040, 12:38:03.380, 1587811083380
46, 1144.18, 433.91, 575.77, 860.89, 0.048, 0.000, -1.040, 12:38:03.380, 1587811083380
47, 1135.23, 404.76, 587.21, 854.17, 0.048, 0.000, -1.040, 12:38:03.395, 1587811083395
48, 1178.65, 448.95, 625.18, 842.14, 0.048, 0.000, -1.040, 12:38:03.395, 1587811083395
49, 1200.42, 477.74, 611.91, 850.97, 0.048, 0.000, -1.040, 12:38:03.396, 1587811083396
50, 1153.56, 434.80, 577.50, 862.70, 0.048, 0.000, -1.040, 12:38:03.396, 1587811083396
51, 1142.63, 411.77, 595.74, 856.80, 0.048, 0.000, -1.040, 12:38:03.411, 1587811083411
52, 1183.57, 463.80, 635.09, 848.99, 0.048, 0.000, -1.040, 12:38:03.411, 1587811083411
53, 1198.96, 485.48, 621.98, 853.57, 0.048, 0.000, -1.040, 12:38:03.411, 1587811083411
54, 1155.38, 440.30, 579.17, 862.93, 0.048, 0.000, -1.040, 12:38:03.411, 1587811083411
55, 1137.13, 410.10, 590.58, 852.38, 0.048, 0.000, -1.040, 12:38:03.424, 1587811083424
56, 1181.19, 457.98, 631.93, 845.55, 0.048, 0.000, -1.040, 12:38:03.424, 1587811083424
57, 1204.20, 485.42, 620.35, 856.45, 0.048, 0.000, -1.040, 12:38:03.457, 1587811083457
58, 1158.28, 445.84, 583.77, 868.74, 0.048, 0.000, -1.040, 12:38:03.457, 1587811083457
59, 1136.16, 421.87, 599.88, 861.01, 0.048, 0.000, -1.040, 12:38:03.457, 1587811083457
60, 1183.33, 470.76, 641.85, 850.74, 0.048, 0.000, -1.040, 12:38:03.457, 1587811083457
61, 1204.83, 491.00, 624.26, 857.19, 0.048, 0.000, -1.040, 12:38:03.458, 1587811083458
62, 1157.47, 449.72, 583.67, 867.30, 0.048, 0.000, -1.040, 12:38:03.458, 1587811083458
63, 1137.99, 419.79, 595.52, 855.80, 0.048, 0.000, -1.040, 12:38:03.459, 1587811083459
64, 1181.85, 463.30, 637.94, 841.14, 0.048, 0.000, -1.040, 12:38:03.459, 1587811083459
65, 1203.02, 490.99, 624.98, 849.93, 0.048, 0.000, -1.040, 12:38:03.469, 1587811083469
66, 1156.43, 446.62, 582.14, 861.65, 0.032, 0.000, -1.024, 12:38:03.469, 1587811083469
67, 1134.05, 415.35, 594.20, 857.60, 0.032, 0.000, -1.024, 12:38:03.485, 1587811083485
68, 1182.96, 460.46, 632.10, 849.45, 0.032, 0.000, -1.024, 12:38:03.485, 1587811083485
69, 1198.07, 485.84, 615.42, 851.89, 0.032, 0.000, -1.024, 12:38:03.500, 1587811083500
70, 1148.24, 434.96, 571.70, 864.55, 0.032, 0.000, -1.024, 12:38:03.500, 1587811083500
71, 1133.52, 407.79, 583.55, 851.42, 0.032, 0.000, -1.024, 12:38:03.501, 1587811083501
72, 1180.49, 452.54, 623.55, 843.31, 0.032, 0.000, -1.024, 12:38:03.501, 1587811083501
73, 1203.09, 486.98, 615.52, 849.94, 0.032, 0.000, -1.024, 12:38:03.514, 1587811083514
74, 1159.08, 442.05, 584.45, 863.25, 0.032, 0.000, -1.024, 12:38:03.514, 1587811083514
75, 1137.05, 414.51, 595.36, 854.69, 0.032, 0.000, -1.024, 12:38:03.530, 1587811083530
76, 1181.82, 455.55, 628.22, 842.93, 0.032, 0.000, -1.024, 12:38:03.530, 1587811083530
77, 1199.65, 486.20, 614.71, 851.88, 0.032, 0.000, -1.024, 12:38:03.531, 1587811083531
78, 1154.48, 434.51, 574.13, 861.88, 0.032, 0.000, -1.024, 12:38:03.531, 1587811083531
79, 1133.34, 409.19, 590.58, 855.05, 0.032, 0.000, -1.024, 12:38:03.544, 1587811083544
80, 1183.53, 452.37, 630.92, 844.11, 0.032, 0.000, -1.024, 12:38:03.544, 1587811083544
81, 1201.86, 485.37, 618.60, 853.64, 0.032, 0.000, -1.024, 12:38:03.561, 1587811083561
82, 1159.53, 439.37, 583.85, 869.09, 0.032, 0.000, -1.024, 12:38:03.561, 1587811083561
83, 1141.52, 412.17, 596.29, 861.84, 0.032, 0.000, -1.024, 12:38:03.561, 1587811083561
84, 1186.48, 460.57, 631.42, 850.06, 0.032, 0.000, -1.024, 12:38:03.561, 1587811083561
85, 1200.38, 490.83, 616.68, 853.42, 0.032, 0.000, -1.024, 12:38:03.574, 1587811083574
86, 1153.39, 441.99, 578.33, 860.51, 0.032, 0.000, -1.040, 12:38:03.574, 1587811083574
87, 1136.77, 410.05, 595.29, 857.55, 0.032, 0.000, -1.040, 12:38:03.591, 1587811083591
88, 1181.15, 453.95, 633.60, 845.13, 0.032, 0.000, -1.040, 12:38:03.591, 1587811083591
89, 1201.15, 483.63, 619.57, 851.89, 0.032, 0.000, -1.040, 12:38:03.593, 1587811083593
90, 1152.92, 437.62, 577.31, 860.62, 0.032, 0.000, -1.040, 12:38:03.593, 1587811083593
91, 1133.04, 406.54, 590.05, 850.55, 0.032, 0.000, -1.040, 12:38:03.604, 1587811083604
92, 1177.97, 451.91, 629.70, 850.32, 0.032, 0.000, -1.040, 12:38:03.604, 1587811083604
93, 1201.42, 484.16, 623.31, 853.81, 0.032, 0.000, -1.040, 12:38:03.621, 1587811083621
94, 1158.89, 439.02, 577.17, 862.91, 0.032, 0.000, -1.040, 12:38:03.621, 1587811083621
95, 1137.77, 403.44, 587.67, 853.55, 0.032, 0.000, -1.040, 12:38:03.623, 1587811083623
96, 1177.47, 448.28, 623.56, 840.98, 0.032, 0.000, -1.040, 12:38:03.623, 1587811083623
97, 1200.79, 478.80, 612.37, 845.17, 0.032, 0.000, -1.040, 12:38:03.634, 1587811083634
98, 1153.37, 428.11, 567.37, 856.08, 0.032, 0.000, -1.040, 12:38:03.634, 1587811083634
99, 1135.09, 405.14, 584.45, 852.55, 0.032, 0.000, -1.040, 12:38:03.650, 1587811083650
100, 1183.24, 453.31, 626.18, 838.89, 0.032, 0.000, -1.040, 12:38:03.650, 1587811083650
101, 1201.52, 478.99, 613.91, 853.34, 0.032, 0.000, -1.040, 12:38:03.651, 1587811083651
102, 1157.17, 437.44, 581.55, 864.23, 0.032, 0.000, -1.040, 12:38:03.651, 1587811083651
103, 1139.72, 403.51, 588.89, 853.79, 0.032, 0.000, -1.040, 12:38:03.664, 1587811083664
104, 1180.66, 449.47, 623.66, 842.26, 0.032, 0.000, -1.040, 12:38:03.664, 1587811083664
105, 1197.88, 479.30, 612.65, 851.57, 0.032, 0.000, -1.040, 12:38:03.680, 1587811083680
106, 1157.31, 425.90, 568.50, 859.25, 0.032, 0.000, -1.024, 12:38:03.680, 1587811083680
107, 1143.09, 407.91, 588.42, 856.10, 0.032, 0.000, -1.024, 12:38:03.681, 1587811083681
108, 1181.22, 446.59, 621.58, 842.54, 0.032, 0.000, -1.024, 12:38:03.681, 1587811083681
109, 1201.05, 475.18, 608.83, 852.56, 0.032, 0.000, -1.024, 12:38:03.695, 1587811083695
110, 1156.58, 422.91, 565.10, 854.90, 0.032, 0.000, -1.024, 12:38:03.695, 1587811083695
111, 1139.55, 402.23, 579.34, 851.42, 0.032, 0.000, -1.024, 12:38:03.710, 1587811083710
112, 1181.60, 438.53, 617.33, 844.98, 0.032, 0.000, -1.024, 12:38:03.710, 1587811083710
113, 1200.10, 470.13, 605.08, 851.49, 0.032, 0.000, -1.024, 12:38:03.711, 1587811083711
114, 1150.20, 419.74, 563.57, 858.36, 0.032, 0.000, -1.024, 12:38:03.711, 1587811083711
115, 1145.20, 392.29, 577.55, 850.97, 0.032, 0.000, -1.024, 12:38:03.724, 1587811083724
116, 1186.60, 443.27, 613.88, 843.43, 0.032, 0.000, -1.024, 12:38:03.724, 1587811083724
117, 1198.76, 465.51, 599.42, 851.28, 0.032, 0.000, -1.024, 12:38:03.740, 1587811083740
118, 1154.78, 420.48, 563.45, 866.73, 0.032, 0.000, -1.024, 12:38:03.740, 1587811083740
119, 1132.85, 388.71, 568.46, 853.68, 0.032, 0.000, -1.024, 12:38:03.741, 1587811083741
120, 1176.58, 433.90, 604.81, 840.49, 0.032, 0.000, -1.024, 12:38:03.741, 1587811083741
121, 1201.09, 473.52, 592.94, 844.32, 0.032, 0.000, -1.024, 12:38:03.754, 1587811083754
122, 1152.43, 423.73, 556.71, 851.32, 0.032, 0.000, -1.024, 12:38:03.754, 1587811083754
123, 1136.14, 401.33, 573.24, 849.35, 0.032, 0.000, -1.024, 12:38:03.771, 1587811083771
124, 1178.83, 452.55, 616.82, 843.07, 0.032, 0.000, -1.024, 12:38:03.771, 1587811083771
125, 1201.11, 481.15, 601.09, 849.70, 0.032, 0.000, -1.024, 12:38:03.772, 1587811083772
126, 1154.84, 434.24, 563.00, 859.75, 0.048, 0.000, -1.040, 12:38:03.772, 1587811083772
127, 1139.16, 411.72, 577.03, 857.59, 0.048, 0.000, -1.040, 12:38:03.785, 1587811083785
128, 1181.55, 460.38, 618.63, 843.62, 0.048, 0.000, -1.040, 12:38:03.785, 1587811083785
129, 1203.03, 496.67, 609.15, 850.89, 0.048, 0.000, -1.040, 12:38:03.800, 1587811083800
130, 1160.38, 451.31, 567.13, 864.82, 0.048, 0.000, -1.040, 12:38:03.800, 1587811083800
131, 1141.57, 418.52, 581.92, 856.85, 0.048, 0.000, -1.040, 12:38:03.801, 1587811083801
132, 1188.06, 464.59, 623.40, 843.40, 0.048, 0.000, -1.040, 12:38:03.801, 1587811083801
133, 1203.99, 498.70, 611.14, 849.15, 0.048, 0.000, -1.040, 12:38:03.815, 1587811083815
134, 1161.53, 456.60, 575.71, 865.11, 0.048, 0.000, -1.040, 12:38:03.815, 1587811083815
135, 1141.28, 423.81, 586.03, 856.16, 0.048, 0.000, -1.040, 12:38:03.830, 1587811083830
136, 1181.70, 465.01, 622.39, 847.61, 0.048, 0.000, -1.040, 12:38:03.830, 1587811083830
137, 1201.43, 492.56, 608.72, 851.42, 0.048, 0.000, -1.040, 12:38:03.831, 1587811083831
138, 1157.13, 452.60, 569.80, 859.93, 0.048, 0.000, -1.040, 12:38:03.831, 1587811083831
139, 1139.38, 419.93, 578.39, 852.29, 0.048, 0.000, -1.040, 12:38:03.845, 1587811083845
140, 1178.39, 466.43, 618.19, 844.79, 0.048, 0.000, -1.040, 12:38:03.845, 1587811083845
141, 1202.72, 492.66, 606.58, 851.78, 0.048, 0.000, -1.040, 12:38:03.860, 1587811083860
142, 1150.41, 447.91, 564.32, 861.37, 0.048, 0.000, -1.040, 12:38:03.860, 1587811083860
143, 1136.32, 420.53, 584.50, 858.58, 0.048, 0.000, -1.040, 12:38:03.861, 1587811083861
144, 1175.71, 463.44, 619.53, 847.11, 0.048, 0.000, -1.040, 12:38:03.861, 1587811083861
145, 1198.13, 496.80, 607.61, 852.32, 0.048, 0.000, -1.040, 12:38:03.875, 1587811083875
146, 1150.34, 442.89, 566.91, 858.93, 0.048, 0.000, -1.040, 12:38:03.875, 1587811083875
147, 1134.84, 421.02, 579.68, 850.08, 0.048, 0.000, -1.040, 12:38:03.890, 1587811083890
148, 1179.82, 460.24, 619.26, 846.63, 0.048, 0.000, -1.040, 12:38:03.890, 1587811083890
149, 1195.61, 490.19, 605.51, 851.23, 0.048, 0.000, -1.040, 12:38:03.891, 1587811083891
150, 1152.37, 444.37, 568.60, 862.88, 0.048, 0.000, -1.040, 12:38:03.891, 1587811083891
151, 1132.84, 415.12, 575.40, 850.55, 0.048, 0.000, -1.040, 12:38:03.905, 1587811083905
152, 1178.94, 466.68, 622.07, 839.29, 0.048, 0.000, -1.040, 12:38:03.905, 1587811083905
153, 1200.78, 494.82, 612.53, 852.00, 0.048, 0.000, -1.040, 12:38:03.920, 1587811083920
154, 1157.68, 446.27, 572.61, 860.00, 0.048, 0.000, -1.040, 12:38:03.920, 1587811083920
155, 1134.01, 418.55, 580.66, 853.44, 0.048, 0.000, -1.040, 12:38:03.921, 1587811083921
156, 1178.55, 460.03, 621.51, 843.59, 0.048, 0.000, -1.040, 12:38:03.921, 1587811083921
157, 1196.58, 487.12, 609.23, 850.03, 0.048, 0.000, -1.040, 12:38:03.934, 1587811083934
158, 1152.00, 438.95, 566.88, 859.53, 0.048, 0.000, -1.040, 12:38:03.934, 1587811083934
159, 1131.46, 413.18, 577.70, 850.15, 0.048, 0.000, -1.040, 12:38:03.969, 1587811083969
160, 1177.32, 451.88, 615.42, 839.74, 0.048, 0.000, -1.040, 12:38:03.969, 1587811083969
161, 1198.21, 485.42, 610.48, 848.13, 0.048, 0.000, -1.040, 12:38:03.970, 1587811083970
162, 1152.50, 439.59, 567.68, 855.13, 0.048, 0.000, -1.040, 12:38:03.970, 1587811083970
163, 1131.24, 411.25, 583.84, 851.56, 0.048, 0.000, -1.040, 12:38:03.970, 1587811083970
164, 1175.58, 452.43, 612.30, 836.44, 0.048, 0.000, -1.040, 12:38:03.970, 1587811083970
165, 1195.46, 482.33, 601.90, 844.64, 0.048, 0.000, -1.040, 12:38:03.980, 1587811083980
166, 1155.29, 434.17, 564.49, 852.65, 0.048, 0.000, -1.040, 12:38:03.980, 1587811083980
167, 1133.93, 404.64, 571.90, 844.32, 0.048, 0.000, -1.040, 12:38:03.981, 1587811083981
168, 1178.43, 446.43, 613.45, 837.61, 0.048, 0.000, -1.040, 12:38:03.981, 1587811083981
169, 1192.61, 470.79, 597.07, 843.44, 0.048, 0.000, -1.040, 12:38:04.011, 1587811084011
170, 1144.62, 430.80, 563.54, 855.24, 0.048, 0.000, -1.040, 12:38:04.011, 1587811084011
171, 1126.95, 398.12, 573.81, 842.48, 0.048, 0.000, -1.040, 12:38:04.011, 1587811084011
172, 1177.98, 450.77, 623.30, 841.81, 0.048, 0.000, -1.040, 12:38:04.011, 1587811084011
173, 1198.95, 477.55, 609.44, 845.48, 0.048, 0.000, -1.040, 12:38:04.012, 1587811084012
174, 1151.78, 430.03, 566.30, 855.68, 0.048, 0.000, -1.040, 12:38:04.012, 1587811084012
175, 1132.62, 408.01, 582.85, 846.99, 0.048, 0.000, -1.040, 12:38:04.025, 1587811084025
176, 1177.47, 448.07, 619.96, 840.70, 0.048, 0.000, -1.040, 12:38:04.025, 1587811084025
177, 1196.41, 474.33, 604.76, 848.67, 0.048, 0.000, -1.040, 12:38:04.040, 1587811084040
178, 1156.52, 428.27, 568.90, 857.24, 0.048, 0.000, -1.040, 12:38:04.040, 1587811084040
179, 1131.35, 403.86, 583.72, 852.11, 0.048, 0.000, -1.040, 12:38:04.041, 1587811084041
180, 1180.21, 448.35, 621.27, 843.76, 0.048, 0.000, -1.040, 12:38:04.041, 1587811084041
181, 1189.47, 478.10, 610.98, 852.23, 0.048, 0.000, -1.040, 12:38:04.056, 1587811084056
182, 1146.64, 434.58, 568.68, 860.75, 0.048, 0.000, -1.040, 12:38:04.056, 1587811084056
183, 1132.13, 403.74, 586.80, 852.82, 0.048, 0.000, -1.040, 12:38:04.071, 1587811084071
184, 1176.27, 453.55, 625.92, 844.16, 0.048, 0.000, -1.040, 12:38:04.071, 1587811084071
185, 1197.55, 479.22, 616.04, 855.16, 0.048, 0.000, -1.040, 12:38:04.072, 1587811084072
186, 1152.23, 430.77, 571.51, 859.65, 0.048, 0.000, -1.040, 12:38:04.072, 1587811084072
187, 1135.43, 403.80, 586.09, 849.58, 0.048, 0.000, -1.040, 12:38:04.084, 1587811084084
188, 1182.07, 455.09, 627.91, 836.92, 0.048, 0.000, -1.040, 12:38:04.084, 1587811084084
189, 1198.22, 475.64, 613.76, 851.28, 0.048, 0.000, -1.040, 12:38:04.100, 1587811084100
190, 1150.90, 432.72, 575.44, 857.50, 0.048, 0.000, -1.040, 12:38:04.100, 1587811084100
191, 1125.69, 400.27, 586.52, 850.14, 0.048, 0.000, -1.040, 12:38:04.102, 1587811084102
192, 1172.47, 451.96, 628.82, 836.40, 0.048, 0.000, -1.040, 12:38:04.102, 1587811084102
193, 1194.65, 479.82, 614.03, 853.93, 0.048, 0.000, -1.040, 12:38:04.131, 1587811084131
194, 1151.50, 435.48, 573.81, 858.12, 0.048, 0.000, -1.040, 12:38:04.131, 1587811084131
195, 1130.64, 411.68, 588.04, 849.99, 0.048, 0.000, -1.040, 12:38:04.132, 1587811084132
196, 1176.51, 456.45, 628.95, 840.48, 0.048, 0.000, -1.040, 12:38:04.132, 1587811084132
197, 1194.93, 488.68, 620.58, 847.87, 0.048, 0.000, -1.040, 12:38:04.133, 1587811084133
198, 1149.03, 442.79, 580.24, 859.01, 0.048, 0.000, -1.040, 12:38:04.133, 1587811084133
199, 1134.59, 412.88, 591.58, 855.08, 0.048, 0.000, -1.040, 12:38:04.145, 1587811084145
200, 1174.23, 450.96, 631.13, 847.31, 0.048, 0.000, -1.040, 12:38:04.145, 1587811084145
0, 1199.34, 483.68, 618.19, 850.58, 0.048, 0.000, -1.040, 12:38:04.146, 1587811084146
1, 1153.95, 437.44, 577.30, 860.49, 0.048, 0.000, -1.040, 12:38:04.160, 1587811084160
2, 1129.58, 409.95, 588.94, 853.46, 0.048, 0.000, -1.040, 12:38:04.160, 1587811084160
3, 1176.44, 450.00, 626.03, 843.40, 0.048, 0.000, -1.040, 12:38:04.176, 1587811084176
4, 1197.73, 480.80, 613.97, 845.85, 0.048, 0.000, -1.040, 12:38:04.176, 1587811084176
5, 1150.00, 437.18, 574.10, 857.95, 0.048, 0.000, -1.040, 12:38:04.177, 1587811084177
6, 1124.84, 409.98, 581.67, 849.85, 0.048, 0.000, -1.024, 12:38:04.177, 1587811084177
7, 1178.28, 448.79, 625.42, 843.18, 0.048, 0.000, -1.024, 12:38:04.190, 1587811084190
8, 1192.01, 478.03, 612.02, 845.95, 0.048, 0.000, -1.024, 12:38:04.190, 1587811084190
9, 1140.85, 429.13, 572.51, 853.26, 0.048, 0.000, -1.024, 12:38:04.206, 1587811084206
10, 1121.88, 397.96, 580.09, 850.16, 0.048, 0.000, -1.024, 12:38:04.206, 1587811084206
11, 1166.24, 440.25, 614.71, 835.11, 0.048, 0.000, -1.024, 12:38:04.207, 1587811084207
12, 1188.04, 478.27, 609.82, 843.28, 0.048, 0.000, -1.024, 12:38:04.207, 1587811084207
13, 1147.51, 432.55, 573.93, 853.56, 0.048, 0.000, -1.024, 12:38:04.220, 1587811084220
14, 1128.57, 408.75, 593.08, 844.43, 0.048, 0.000, -1.024, 12:38:04.220, 1587811084220
15, 1174.64, 448.20, 627.67, 837.60, 0.048, 0.000, -1.024, 12:38:04.235, 1587811084235
16, 1195.46, 484.31, 622.81, 843.62, 0.048, 0.000, -1.024, 12:38:04.235, 1587811084235
17, 1149.39, 435.86, 579.32, 852.09, 0.048, 0.000, -1.024, 12:38:04.236, 1587811084236
18, 1130.38, 404.09, 587.32, 843.09, 0.048, 0.000, -1.024, 12:38:04.236, 1587811084236
19, 1173.26, 449.71, 621.12, 832.84, 0.048, 0.000, -1.024, 12:38:04.250, 1587811084250
20, 1194.01, 474.73, 609.24, 843.23, 0.048, 0.000, -1.024, 12:38:04.250, 1587811084250
21, 1150.04, 431.90, 570.03, 850.90, 0.048, 0.000, -1.024, 12:38:04.265, 1587811084265
22, 1124.80, 404.09, 581.78, 842.58, 0.048, 0.000, -1.024, 12:38:04.265, 1587811084265
23, 1180.19, 453.96, 626.70, 835.22, 0.048, 0.000, -1.024, 12:38:04.266, 1587811084266
24, 1201.24, 486.10, 622.65, 847.78, 0.048, 0.000, -1.024, 12:38:04.266, 1587811084266
25, 1154.19, 441.18, 582.65, 860.02, 0.048, 0.000, -1.024, 12:38:04.280, 1587811084280
26, 1137.34, 414.30, 596.64, 853.32, 0.048, 0.000, -1.040, 12:38:04.280, 1587811084280
27, 1186.55, 459.92, 635.55, 842.30, 0.048, 0.000, -1.040, 12:38:04.295, 1587811084295
28, 1199.92, 487.82, 625.20, 848.54, 0.048, 0.000, -1.040, 12:38:04.295, 1587811084295
29, 1159.76, 441.59, 581.35, 853.56, 0.048, 0.000, -1.040, 12:38:04.296, 1587811084296
30, 1132.87, 412.37, 591.47, 847.44, 0.048, 0.000, -1.040, 12:38:04.296, 1587811084296
31, 1178.99, 459.92, 635.73, 841.58, 0.048, 0.000, -1.040, 12:38:04.310, 1587811084310
32, 1199.53, 481.49, 621.43, 849.57, 0.048, 0.000, -1.040, 12:38:04.310, 1587811084310
33, 1151.13, 441.51, 579.77, 851.78, 0.048, 0.000, -1.040, 12:38:04.325, 1587811084325
34, 1129.30, 412.09, 588.38, 843.89, 0.048, 0.000, -1.040, 12:38:04.325, 1587811084325
35, 1174.79, 457.06, 630.86, 838.26, 0.048, 0.000, -1.040, 12:38:04.326, 1587811084326
36, 1196.36, 485.68, 616.41, 844.79, 0.048, 0.000, -1.040, 12:38:04.326, 1587811084326
37, 1153.54, 439.46, 579.72, 854.43, 0.048, 0.000, -1.040, 12:38:04.339, 1587811084339
38, 1128.88, 404.07, 584.75, 844.69, 0.048, 0.000, -1.040, 12:38:04.339, 1587811084339
39, 1178.10, 453.91, 629.12, 832.96, 0.048, 0.000, -1.040, 12:38:04.356, 1587811084356
40, 1197.73, 479.14, 615.74, 840.85, 0.048, 0.000, -1.040, 12:38:04.356, 1587811084356
41, 1152.71, 438.87, 579.73, 849.73, 0.048, 0.000, -1.040, 12:38:04.356, 1587811084356
42, 1130.74, 411.26, 590.67, 846.69, 0.048, 0.000, -1.040, 12:38:04.356, 1587811084356
43, 1179.54, 455.36, 632.62, 832.33, 0.048, 0.000, -1.040, 12:38:04.369, 1587811084369
44, 1200.97, 482.13, 617.99, 838.46, 0.048, 0.000, -1.040, 12:38:04.369, 1587811084369
45, 1148.00, 436.69, 574.13, 849.62, 0.048, 0.000, -1.040, 12:38:04.386, 1587811084386
46, 1135.30, 410.55, 592.35, 850.86, 0.048, 0.000, -1.040, 12:38:04.386, 1587811084386
47, 1175.70, 453.74, 624.09, 840.51, 0.048, 0.000, -1.040, 12:38:04.387, 1587811084387
48, 1194.49, 485.73, 615.61, 841.22, 0.048, 0.000, -1.040, 12:38:04.387, 1587811084387
49, 1149.22, 436.57, 569.31, 855.79, 0.048, 0.000, -1.040, 12:38:04.400, 1587811084400
50, 1132.46, 407.22, 586.69, 848.93, 0.048, 0.000, -1.040, 12:38:04.400, 1587811084400
51, 1177.22, 449.82, 626.52, 835.46, 0.048, 0.000, -1.040, 12:38:04.415, 1587811084415
52, 1192.75, 481.96, 612.15, 841.75, 0.048, 0.000, -1.040, 12:38:04.415, 1587811084415
53, 1148.16, 432.34, 572.54, 853.33, 0.048, 0.000, -1.040, 12:38:04.416, 1587811084416
54, 1127.90, 406.13, 581.59, 849.57, 0.048, 0.000, -1.040, 12:38:04.416, 1587811084416
55, 1173.66, 445.93, 623.79, 841.64, 0.048, 0.000, -1.040, 12:38:04.430, 1587811084430
56, 1194.44, 479.81, 614.31, 845.56, 0.048, 0.000, -1.040, 12:38:04.430, 1587811084430
57, 1150.79, 437.52, 576.77, 857.44, 0.048, 0.000, -1.040, 12:38:04.445, 1587811084445
58, 1130.09, 412.14, 584.23, 854.40, 0.048, 0.000, -1.040, 12:38:04.445, 1587811084445
59, 1178.84, 458.03, 625.48, 840.66, 0.048, 0.000, -1.040, 12:38:04.446, 1587811084446
60, 1196.25, 488.66, 615.50, 847.17, 0.048, 0.000, -1.040, 12:38:04.446, 1587811084446
61, 1159.98, 445.75, 579.07, 854.84, 0.048, 0.000, -1.040, 12:38:04.460, 1587811084460
62, 1136.16, 413.77, 592.15, 849.64, 0.048, 0.000, -1.040, 12:38:04.460, 1587811084460
63, 1181.82, 456.46, 631.37, 834.65, 0.048, 0.000, -1.040, 12:38:04.475, 1587811084475
64, 1199.47, 488.25, 621.60, 840.68, 0.048, 0.000, -1.040, 12:38:04.475, 1587811084475
65, 1159.22, 446.15, 577.69, 850.64, 0.048, 0.000, -1.040, 12:38:04.476, 1587811084476
66, 1140.82, 415.19, 591.47, 839.16, 0.048, 0.000, -1.040, 12:38:04.476, 1587811084476
67, 1177.44, 456.56, 632.88, 831.72, 0.048, 0.000, -1.040, 12:38:04.506, 1587811084506
68, 1197.53, 484.21, 623.49, 841.73, 0.048, 0.000, -1.040, 12:38:04.506, 1587811084506
69, 1152.58, 445.09, 581.53, 849.15, 0.048, 0.000, -1.040, 12:38:04.506, 1587811084506
70, 1131.81, 413.52, 587.13, 845.21, 0.048, 0.000, -1.040, 12:38:04.506, 1587811084506
71, 1177.26, 455.85, 637.09, 835.72, 0.048, 0.000, -1.040, 12:38:04.507, 1587811084507
72, 1200.93, 488.28, 624.95, 843.32, 0.048, 0.000, -1.040, 12:38:04.507, 1587811084507
73, 1147.80, 440.79, 574.04, 849.17, 0.048, 0.000, -1.040, 12:38:04.520, 1587811084520
74, 1133.04, 415.80, 590.89, 846.12, 0.048, 0.000, -1.040, 12:38:04.520, 1587811084520
75, 1178.65, 452.89, 627.51, 838.19, 0.048, 0.000, -1.040, 12:38:04.535, 1587811084535
76, 1201.58, 486.95, 623.73, 840.67, 0.048, 0.000, -1.040, 12:38:04.535, 1587811084535
77, 1151.80, 436.87, 574.39, 850.26, 0.048, 0.000, -1.040, 12:38:04.536, 1587811084536
78, 1130.31, 408.50, 588.74, 844.08, 0.048, 0.000, -1.040, 12:38:04.536, 1587811084536
79, 1181.75, 450.89, 628.19, 832.82, 0.048, 0.000, -1.040, 12:38:04.550, 1587811084550
80, 1198.46, 479.52, 616.72, 838.44, 0.048, 0.000, -1.040, 12:38:04.550, 1587811084550
81, 1149.38, 434.47, 568.75, 853.29, 0.048, 0.000, -1.040, 12:38:04.565, 1587811084565
82, 1123.45, 397.08, 576.92, 845.92, 0.048, 0.000, -1.040, 12:38:04.565, 1587811084565
83, 1173.02, 442.05, 615.48, 830.80, 0.048, 0.000, -1.040, 12:38:04.566, 1587811084566
84, 1193.63, 473.58, 610.08, 838.55, 0.048, 0.000, -1.040, 12:38:04.566, 1587811084566
85, 1144.67, 427.56, 569.45, 850.08, 0.048, 0.000, -1.040, 12:38:04.580, 1587811084580
86, 1129.81, 402.20, 585.79, 836.49, 0.048, 0.000, -1.040, 12:38:04.580, 1587811084580
87, 1178.98, 446.90, 626.62, 827.26, 0.048, 0.000, -1.040, 12:38:04.596, 1587811084596
88, 1194.27, 474.38, 614.15, 835.63, 0.048, 0.000, -1.040, 12:38:04.596, 1587811084596
89, 1145.40, 427.47, 569.88, 843.29, 0.048, 0.000, -1.040, 12:38:04.596, 1587811084596
90, 1128.65, 400.32, 579.72, 834.57, 0.048, 0.000, -1.040, 12:38:04.596, 1587811084596
91, 1172.61, 447.42, 619.05, 827.13, 0.048, 0.000, -1.040, 12:38:04.626, 1587811084626
92, 1194.59, 474.24, 612.77, 836.93, 0.048, 0.000, -1.040, 12:38:04.626, 1587811084626
93, 1156.28, 439.32, 571.66, 845.69, 0.048, 0.000, -1.040, 12:38:04.627, 1587811084627
94, 1136.00, 408.86, 584.76, 842.55, 0.048, 0.000, -1.040, 12:38:04.627, 1587811084627
95, 1178.97, 449.62, 628.71, 834.98, 0.048, 0.000, -1.040, 12:38:04.627, 1587811084627
96, 1195.47, 483.49, 614.18, 844.00, 0.048, 0.000, -1.040, 12:38:04.627, 1587811084627
97, 1147.51, 437.61, 572.63, 847.66, 0.048, 0.000, -1.040, 12:38:04.639, 1587811084639
98, 1130.58, 410.21, 590.56, 844.51, 0.048, 0.000, -1.040, 12:38:04.639, 1587811084639
99, 1176.86, 454.97, 635.26, 829.21, 0.048, 0.000, -1.040, 12:38:04.655, 1587811084655
100, 1192.48, 481.18, 617.64, 836.36, 0.048, 0.000, -1.040, 12:38:04.655, 1587811084655
101, 1147.73, 430.92, 567.99, 841.11, 0.048, 0.000, -1.040, 12:38:04.656, 1587811084656
102, 1128.74, 402.78, 581.51, 838.05, 0.048, 0.000, -1.040, 12:38:04.656, 1587811084656
103, 1179.56, 454.15, 624.86, 826.64, 0.048, 0.000, -1.040, 12:38:04.670, 1587811084670
104, 1198.40, 479.33, 611.86, 832.91, 0.048, 0.000, -1.040, 12:38:04.670, 1587811084670
105, 1149.68, 437.03, 571.41, 843.32, 0.048, 0.000, -1.040, 12:38:04.685, 1587811084685
106, 1132.78, 407.97, 588.78, 841.86, 0.048, 0.000, -1.040, 12:38:04.685, 1587811084685
107, 1183.16, 454.22, 630.59, 835.21, 0.048, 0.000, -1.040, 12:38:04.686, 1587811084686
108, 1198.30, 486.75, 621.85, 843.92, 0.048, 0.000, -1.040, 12:38:04.686, 1587811084686
109, 1155.25, 436.86, 577.06, 851.01, 0.048, 0.000, -1.040, 12:38:04.700, 1587811084700
110, 1128.83, 405.90, 588.04, 844.78, 0.048, 0.000, -1.040, 12:38:04.700, 1587811084700
111, 1176.39, 452.62, 630.46, 828.37, 0.048, 0.000, -1.040, 12:38:04.715, 1587811084715
112, 1199.08, 479.55, 614.82, 837.93, 0.048, 0.000, -1.040, 12:38:04.715, 1587811084715
113, 1146.34, 424.62, 565.60, 844.51, 0.048, 0.000, -1.040, 12:38:04.716, 1587811084716
114, 1131.08, 412.75, 592.32, 840.61, 0.048, 0.000, -1.040, 12:38:04.716, 1587811084716
115, 1178.14, 459.65, 635.29, 836.28, 0.048, 0.000, -1.040, 12:38:04.730, 1587811084730
116, 1191.93, 479.35, 613.93, 837.49, 0.048, 0.000, -1.040, 12:38:04.730, 1587811084730
117, 1151.31, 436.63, 579.59, 844.67, 0.048, 0.000, -1.040, 12:38:04.746, 1587811084746
118, 1125.96, 408.65, 588.72, 837.69, 0.048, 0.000, -1.040, 12:38:04.746, 1587811084746
119, 1172.24, 457.27, 634.78, 825.43, 0.048, 0.000, -1.040, 12:38:04.746, 1587811084746
120, 1193.78, 485.50, 621.69, 835.22, 0.048, 0.000, -1.040, 12:38:04.746, 1587811084746
121, 1144.36, 438.57, 575.96, 844.30, 0.048, 0.000, -1.040, 12:38:04.759, 1587811084759
122, 1125.75, 409.07, 592.97, 842.21, 0.048, 0.000, -1.040, 12:38:04.759, 1587811084759
123, 1176.33, 458.09, 636.66, 834.73, 0.048, 0.000, -1.040, 12:38:04.776, 1587811084776
124, 1201.36, 487.30, 627.00, 839.18, 0.048, 0.000, -1.040, 12:38:04.776, 1587811084776
125, 1149.94, 438.00, 577.48, 854.59, 0.048, 0.000, -1.040, 12:38:04.776, 1587811084776
126, 1126.94, 409.26, 590.02, 843.98, 0.048, 0.000, -1.040, 12:38:04.776, 1587811084776
127, 1176.48, 461.06, 640.80, 836.24, 0.048, 0.000, -1.040, 12:38:04.789, 1587811084789
128, 1194.06, 486.32, 623.25, 841.90, 0.048, 0.000, -1.040, 12:38:04.789, 1587811084789
129, 1145.92, 440.66, 579.95, 852.82, 0.048, 0.000, -1.040, 12:38:04.805, 1587811084805
130, 1125.19, 408.74, 587.99, 840.30, 0.048, 0.000, -1.040, 12:38:04.805, 1587811084805
131, 1171.75, 448.60, 629.56, 831.44, 0.048, 0.000, -1.040, 12:38:04.806, 1587811084806
132, 1190.69, 483.48, 617.50, 841.41, 0.048, 0.000, -1.040, 12:38:04.806, 1587811084806
133, 1146.96, 439.80, 575.92, 850.43, 0.048, 0.000, -1.040, 12:38:04.819, 1587811084819
134, 1126.91, 409.18, 586.46, 845.87, 0.048, 0.000, -1.040, 12:38:04.819, 1587811084819
135, 1178.61, 451.38, 634.31, 836.67, 0.048, 0.000, -1.040, 12:38:04.835, 1587811084835
136, 1199.74, 486.15, 624.59, 839.74, 0.048, 0.000, -1.040, 12:38:04.835, 1587811084835
137, 1147.59, 438.48, 579.57, 856.07, 0.048, 0.000, -1.040, 12:38:04.836, 1587811084836
138, 1122.92, 406.05, 587.60, 845.11, 0.048, 0.000, -1.040, 12:38:04.836, 1587811084836
139, 1172.18, 448.27, 629.95, 832.53, 0.048, 0.000, -1.040, 12:38:04.850, 1587811084850
140, 1193.32, 480.89, 617.97, 840.62, 0.048, 0.000, -1.040, 12:38:04.850, 1587811084850
141, 1144.99, 438.26, 577.28, 843.46, 0.048, 0.000, -1.040, 12:38:04.865, 1587811084865
142, 1125.20, 403.19, 586.79, 841.64, 0.048, 0.000, -1.040, 12:38:04.865, 1587811084865
143, 1171.23, 451.20, 630.56, 830.62, 0.048, 0.000, -1.040, 12:38:04.866, 1587811084866
144, 1192.30, 484.60, 625.08, 837.96, 0.048, 0.000, -1.040, 12:38:04.866, 1587811084866
145, 1147.81, 440.71, 581.25, 851.00, 0.048, 0.000, -1.040, 12:38:04.880, 1587811084880
146, 1129.77, 416.66, 598.82, 848.25, 0.048, 0.000, -1.040, 12:38:04.880, 1587811084880
147, 1179.70, 462.46, 636.00, 842.17, 0.048, 0.000, -1.040, 12:38:04.895, 1587811084895
148, 1195.56, 495.13, 625.11, 844.66, 0.048, 0.000, -1.040, 12:38:04.895, 1587811084895
149, 1153.03, 445.53, 583.90, 852.36, 0.048, 0.000, -1.040, 12:38:04.896, 1587811084896
150, 1136.83, 420.02, 599.02, 849.19, 0.048, 0.000, -1.040, 12:38:04.896, 1587811084896
151, 1182.41, 467.14, 639.08, 840.77, 0.048, 0.000, -1.040, 12:38:04.910, 1587811084910
152, 1196.99, 494.21, 622.00, 846.19, 0.048, 0.000, -1.040, 12:38:04.910, 1587811084910
153, 1155.53, 452.10, 579.87, 856.95, 0.048, 0.000, -1.040, 12:38:04.926, 1587811084926
154, 1130.77, 417.64, 586.53, 846.66, 0.048, 0.000, -1.040, 12:38:04.926, 1587811084926
155, 1177.73, 460.65, 634.88, 837.54, 0.048, 0.000, -1.040, 12:38:04.926, 1587811084926
156, 1196.67, 496.35, 627.09, 845.29, 0.048, 0.000, -1.040, 12:38:04.926, 1587811084926
157, 1150.55, 443.22, 580.92, 854.57, 0.048, 0.000, -1.040, 12:38:04.940, 1587811084940
158, 1133.62, 421.66, 597.36, 849.78, 0.048, 0.000, -1.040, 12:38:04.940, 1587811084940
159, 1183.50, 464.43, 645.40, 842.26, 0.048, 0.000, -1.040, 12:38:04.956, 1587811084956
160, 1204.37, 497.01, 632.68, 847.80, 0.048, 0.000, -1.040, 12:38:04.956, 1587811084956
161, 1153.24, 447.11, 583.61, 857.89, 0.048, 0.000, -1.040, 12:38:04.957, 1587811084957
162, 1138.86, 420.02, 597.65, 849.33, 0.048, 0.000, -1.040, 12:38:04.957, 1587811084957
163, 1178.92, 462.53, 638.05, 839.31, 0.048, 0.000, -1.040, 12:38:04.970, 1587811084970
164, 1199.43, 494.66, 625.25, 843.51, 0.048, 0.000, -1.040, 12:38:04.970, 1587811084970
165, 1151.62, 446.93, 580.98, 850.61, 0.048, 0.000, -1.040, 12:38:04.986, 1587811084986
166, 1136.90, 418.79, 595.76, 847.54, 0.048, 0.000, -1.024, 12:38:04.986, 1587811084986
167, 1178.07, 463.82, 643.01, 836.25, 0.048, 0.000, -1.024, 12:38:04.987, 1587811084987
168, 1199.08, 492.33, 628.58, 846.73, 0.048, 0.000, -1.024, 12:38:04.987, 1587811084987
169, 1152.01, 448.20, 583.70, 855.37, 0.048, 0.000, -1.024, 12:38:05.000, 1587811085000
170, 1128.93, 414.93, 594.86, 849.50, 0.048, 0.000, -1.024, 12:38:05.000, 1587811085000
171, 1176.64, 463.41, 639.97, 842.17, 0.048, 0.000, -1.024, 12:38:05.015, 1587811085015
172, 1197.39, 493.36, 626.49, 843.05, 0.048, 0.000, -1.024, 12:38:05.015, 1587811085015
173, 1152.06, 447.55, 580.41, 853.63, 0.048, 0.000, -1.024, 12:38:05.016, 1587811085016
174, 1133.56, 416.92, 594.12, 853.38, 0.048, 0.000, -1.024, 12:38:05.016, 1587811085016
175, 1177.30, 464.03, 634.29, 836.08, 0.048, 0.000, -1.024, 12:38:05.031, 1587811085031
176, 1199.58, 496.52, 629.17, 850.43, 0.048, 0.000, -1.024, 12:38:05.031, 1587811085031
177, 1149.24, 450.72, 580.20, 860.97, 0.048, 0.000, -1.024, 12:38:05.045, 1587811085045
178, 1132.68, 417.92, 591.57, 852.35, 0.048, 0.000, -1.024, 12:38:05.045, 1587811085045
179, 1177.81, 463.04, 633.35, 843.64, 0.048, 0.000, -1.024, 12:38:05.046, 1587811085046
180, 1195.49, 494.18, 622.00, 844.58, 0.048, 0.000, -1.024, 12:38:05.046, 1587811085046
181, 1154.06, 448.37, 584.19, 859.64, 0.048, 0.000, -1.024, 12:38:05.060, 1587811085060
182, 1134.16, 418.59, 594.03, 850.54, 0.048, 0.000, -1.024, 12:38:05.060, 1587811085060
183, 1177.37, 460.56, 635.89, 840.07, 0.048, 0.000, -1.024, 12:38:05.075, 1587811085075
184, 1197.92, 487.48, 623.14, 847.67, 0.048, 0.000, -1.024, 12:38:05.075, 1587811085075
185, 1153.00, 442.71, 578.21, 858.85, 0.048, 0.000, -1.024, 12:38:05.076, 1587811085076
186, 1132.06, 421.77, 593.73, 854.35, 0.048, 0.000, -1.040, 12:38:05.076, 1587811085076
187, 1176.08, 461.15, 636.63, 842.82, 0.048, 0.000, -1.040, 12:38:05.090, 1587811085090
188, 1196.75, 490.70, 621.43, 845.45, 0.048, 0.000, -1.040, 12:38:05.090, 1587811085090
189, 1152.35, 446.49, 580.55, 858.69, 0.048, 0.000, -1.040, 12:38:05.122, 1587811085122
190, 1129.72, 415.03, 589.14, 851.15, 0.048, 0.000, -1.040, 12:38:05.122, 1587811085122
191, 1174.85, 458.38, 632.56, 845.56, 0.048, 0.000, -1.040, 12:38:05.122, 1587811085122
192, 1194.15, 488.55, 621.09, 849.15, 0.048, 0.000, -1.040, 12:38:05.122, 1587811085122
193, 1147.59, 449.38, 584.41, 859.11, 0.048, 0.000, -1.040, 12:38:05.123, 1587811085123
194, 1127.22, 418.37, 592.64, 854.28, 0.048, 0.000, -1.040, 12:38:05.123, 1587811085123
195, 1173.09, 465.25, 636.97, 843.21, 0.048, 0.000, -1.040, 12:38:05.124, 1587811085124
196, 1194.89, 490.61, 622.78, 851.61, 0.048, 0.000, -1.040, 12:38:05.124, 1587811085124
197, 1154.03, 451.25, 580.54, 862.01, 0.048, 0.000, -1.040, 12:38:05.135, 1587811085135
198, 1130.11, 422.77, 597.51, 856.07, 0.048, 0.000, -1.040, 12:38:05.136, 1587811085136
199, 1175.13, 462.75, 635.84, 845.65, 0.048, 0.000, -1.040, 12:38:05.150, 1587811085150
200, 1194.38, 496.38, 625.65, 849.20, 0.048, 0.000, -1.040, 12:38:05.150, 1587811085150
0, 1154.48, 454.57, 585.28, 858.85, 0.048, 0.000, -1.040, 12:38:05.151, 1587811085151
1, 1135.58, 426.52, 599.41, 850.69, 0.048, 0.000, -1.040, 12:38:05.181, 1587811085181
2, 1174.38, 470.69, 639.60, 847.76, 0.048, 0.000, -1.040, 12:38:05.181, 1587811085181
3, 1202.22, 501.69, 630.61, 851.93, 0.048, 0.000, -1.040, 12:38:05.181, 1587811085181
4, 1152.94, 459.96, 588.13, 861.33, 0.048, 0.000, -1.040, 12:38:05.181, 1587811085181
5, 1134.36, 426.53, 599.36, 857.24, 0.048, 0.000, -1.040, 12:38:05.182, 1587811085182
6, 1184.59, 472.70, 642.00, 847.88, 0.048, 0.000, -1.040, 12:38:05.182, 1587811085182
7, 1199.81, 499.29, 624.88, 854.69, 0.048, 0.000, -1.040, 12:38:05.195, 1587811085195
8, 1152.22, 454.76, 588.10, 859.72, 0.048, 0.000, -1.040, 12:38:05.195, 1587811085195
9, 1133.55, 426.49, 599.49, 859.92, 0.048, 0.000, -1.040, 12:38:05.211, 1587811085211
10, 1185.76, 468.32, 640.33, 844.32, 0.048, 0.000, -1.040, 12:38:05.211, 1587811085211
11, 1202.84, 499.10, 628.89, 852.41, 0.048, 0.000, -1.040, 12:38:05.212, 1587811085212
12, 1155.23, 457.79, 586.05, 858.19, 0.048, 0.000, -1.040, 12:38:05.212, 1587811085212
13, 1131.53, 423.81, 595.80, 849.99, 0.048, 0.000, -1.040, 12:38:05.241, 1587811085241
14, 1177.81, 468.95, 641.10, 840.42, 0.048, 0.000, -1.040, 12:38:05.241, 1587811085241
15, 1203.32, 506.36, 633.08, 850.44, 0.048, 0.000, -1.040, 12:38:05.242, 1587811085242
16, 1157.12, 458.10, 587.21, 865.03, 0.048, 0.000, -1.040, 12:38:05.242, 1587811085242
17, 1138.72, 427.77, 598.23, 854.24, 0.048, 0.000, -1.040, 12:38:05.243, 1587811085243
18, 1178.97, 470.20, 643.84, 850.18, 0.048, 0.000, -1.040, 12:38:05.243, 1587811085243
19, 1199.95, 497.40, 628.82, 853.90, 0.048, 0.000, -1.040, 12:38:05.255, 1587811085255
20, 1150.49, 449.51, 584.17, 858.77, 0.048, 0.000, -1.040, 12:38:05.255, 1587811085255
21, 1126.60, 415.52, 594.10, 855.11, 0.048, 0.000, -1.040, 12:38:05.270, 1587811085270
22, 1174.98, 464.85, 633.89, 845.19, 0.048, 0.000, -1.040, 12:38:05.270, 1587811085270
23, 1193.89, 496.00, 621.85, 850.50, 0.048, 0.000, -1.040, 12:38:05.271, 1587811085271
24, 1152.01, 448.42, 579.09, 857.21, 0.048, 0.000, -1.040, 12:38:05.271, 1587811085271
25, 1126.03, 418.40, 588.73, 854.53, 0.048, 0.000, -1.040, 12:38:05.285, 1587811085285
26, 1169.02, 460.33, 627.09, 842.98, 0.048, 0.000, -1.024, 12:38:05.285, 1587811085285
27, 1193.12, 490.13, 614.07, 847.03, 0.048, 0.000, -1.024, 12:38:05.300, 1587811085300
28, 1148.35, 446.47, 570.87, 858.54, 0.048, 0.000, -1.024, 12:38:05.300, 1587811085300
29, 1125.97, 415.41, 584.70, 855.06, 0.048, 0.000, -1.024, 12:38:05.301, 1587811085301
30, 1174.01, 460.31, 622.77, 843.91, 0.048, 0.000, -1.024, 12:38:05.301, 1587811085301
31, 1189.65, 490.42, 611.34, 851.41, 0.048, 0.000, -1.024, 12:38:05.315, 1587811085315
32, 1143.24, 444.66, 571.71, 858.20, 0.048, 0.000, -1.024, 12:38:05.315, 1587811085315
33, 1120.48, 411.74, 580.56, 854.41, 0.048, 0.000, -1.024, 12:38:05.330, 1587811085330
34, 1170.03, 460.38, 628.92, 848.50, 0.048, 0.000, -1.024, 12:38:05.330, 1587811085330
35, 1196.19, 493.32, 615.01, 852.87, 0.048, 0.000, -1.024, 12:38:05.331, 1587811085331
36, 1152.61, 446.12, 571.31, 862.45, 0.048, 0.000, -1.024, 12:38:05.331, 1587811085331
37, 1131.83, 406.10, 582.81, 850.72, 0.048, 0.000, -1.024, 12:38:05.345, 1587811085345
38, 1170.84, 449.89, 625.32, 837.66, 0.048, 0.000, -1.024, 12:38:05.345, 1587811085345
39, 1192.52, 479.22, 617.72, 844.08, 0.048, 0.000, -1.024, 12:38:05.360, 1587811085360
40, 1151.08, 445.53, 576.03, 854.32, 0.048, 0.000, -1.024, 12:38:05.360, 1587811085360
41, 1126.76, 410.50, 587.03, 848.98, 0.048, 0.000, -1.024, 12:38:05.361, 1587811085361
42, 1174.35, 463.89, 643.93, 837.80, 0.048, 0.000, -1.024, 12:38:05.361, 1587811085361
43, 1205.22, 496.82, 630.59, 852.60, 0.048, 0.000, -1.024, 12:38:05.374, 1587811085374
44, 1159.22, 458.52, 587.98, 865.88, 0.048, 0.000, -1.024, 12:38:05.374, 1587811085374
45, 1139.28, 431.26, 599.14, 859.59, 0.048, 0.000, -1.024, 12:38:05.391, 1587811085391
46, 1178.03, 462.94, 634.35, 843.55, 0.048, 0.000, -1.024, 12:38:05.391, 1587811085391
47, 1194.97, 491.10, 623.39, 841.98, 0.048, 0.000, -1.024, 12:38:05.391, 1587811085391
48, 1150.05, 444.55, 576.26, 857.24, 0.048, 0.000, -1.024, 12:38:05.391, 1587811085391
49, 1132.61, 413.62, 587.44, 850.04, 0.048, 0.000, -1.024, 12:38:05.405, 1587811085405
50, 1178.15, 470.26, 636.75, 842.60, 0.048, 0.000, -1.024, 12:38:05.405, 1587811085405
51, 1192.82, 496.76, 622.58, 847.52, 0.048, 0.000, -1.024, 12:38:05.421, 1587811085421
52, 1148.85, 454.82, 580.58, 856.73, 0.048, 0.000, -1.024, 12:38:05.421, 1587811085421
53, 1131.68, 419.34, 591.42, 852.66, 0.048, 0.000, -1.024, 12:38:05.421, 1587811085421
54, 1175.51, 469.06, 636.99, 841.69, 0.048, 0.000, -1.024, 12:38:05.421, 1587811085421
55, 1187.78, 493.71, 621.08, 840.99, 0.048, 0.000, -1.024, 12:38:05.435, 1587811085435
56, 1148.19, 448.23, 577.58, 852.02, 0.048, 0.000, -1.024, 12:38:05.435, 1587811085435
57, 1125.70, 419.15, 590.43, 845.54, 0.048, 0.000, -1.024, 12:38:05.451, 1587811085451
58, 1178.53, 464.40, 636.05, 847.32, 0.048, 0.000, -1.024, 12:38:05.451, 1587811085451
59, 1197.75, 490.64, 620.31, 834.98, 0.048, 0.000, -1.024, 12:38:05.453, 1587811085453
60, 1150.33, 450.34, 578.34, 854.77, 0.048, 0.000, -1.024, 12:38:05.453, 1587811085453
61, 1126.76, 414.07, 588.73, 848.34, 0.048, 0.000, -1.024, 12:38:05.465, 1587811085465
62, 1171.64, 461.17, 634.08, 846.11, 0.048, 0.000, -1.024, 12:38:05.465, 1587811085465
63, 1198.30, 495.92, 626.41, 848.61, 0.048, 0.000, -1.024, 12:38:05.480, 1587811085480
64, 1153.45, 449.01, 585.03, 852.93, 0.048, 0.000, -1.024, 12:38:05.480, 1587811085480
65, 1126.80, 418.03, 594.44, 853.56, 0.048, 0.000, -1.024, 12:38:05.481, 1587811085481
66, 1172.42, 459.60, 634.03, 837.17, 0.048, 0.000, -1.024, 12:38:05.481, 1587811085481
67, 1193.97, 492.13, 624.94, 846.61, 0.048, 0.000, -1.024, 12:38:05.495, 1587811085495
68, 1149.38, 448.95, 579.47, 854.50, 0.048, 0.000, -1.024, 12:38:05.495, 1587811085495
69, 1126.24, 420.53, 595.35, 845.08, 0.048, 0.000, -1.024, 12:38:05.510, 1587811085510
70, 1176.46, 466.91, 639.51, 837.41, 0.048, 0.000, -1.024, 12:38:05.510, 1587811085510
71, 1198.15, 500.36, 627.51, 850.94, 0.048, 0.000, -1.024, 12:38:05.511, 1587811085511
72, 1157.18, 451.99, 587.76, 857.41, 0.048, 0.000, -1.024, 12:38:05.511, 1587811085511
73, 1127.73, 415.84, 590.92, 843.56, 0.048, 0.000, -1.024, 12:38:05.525, 1587811085525
74, 1168.37, 461.42, 631.05, 835.24, 0.048, 0.000, -1.024, 12:38:05.525, 1587811085525
75, 1196.13, 492.09, 621.67, 844.68, 0.048, 0.000, -1.024, 12:38:05.540, 1587811085540
76, 1155.66, 449.33, 583.18, 852.06, 0.048, 0.000, -1.024, 12:38:05.540, 1587811085540
77, 1133.88, 416.63, 589.77, 849.23, 0.048, 0.000, -1.024, 12:38:05.541, 1587811085541
78, 1179.48, 465.92, 633.47, 842.01, 0.048, 0.000, -1.024, 12:38:05.541, 1587811085541
79, 1198.28, 496.06, 625.28, 844.52, 0.048, 0.000, -1.024, 12:38:05.555, 1587811085555
80, 1149.57, 450.51, 580.40, 860.48, 0.048, 0.000, -1.024, 12:38:05.555, 1587811085555
81, 1126.31, 420.79, 594.20, 854.73, 0.048, 0.000, -1.024, 12:38:05.571, 1587811085571
82, 1171.71, 468.58, 633.34, 844.84, 0.048, 0.000, -1.024, 12:38:05.571, 1587811085571
83, 1194.35, 498.19, 622.00, 852.86, 0.048, 0.000, -1.024, 12:38:05.572, 1587811085572
84, 1154.03, 456.72, 586.28, 862.57, 0.048, 0.000, -1.024, 12:38:05.572, 1587811085572
85, 1136.09, 422.47, 597.19, 854.60, 0.048, 0.000, -1.024, 12:38:05.584, 1587811085584
86, 1179.77, 466.40, 637.24, 841.62, 0.048, 0.000, -1.024, 12:38:05.584, 1587811085584
87, 1200.53, 500.52, 625.24, 846.79, 0.048, 0.000, -1.024, 12:38:05.617, 1587811085617
88, 1154.63, 454.77, 587.54, 861.72, 0.048, 0.000, -1.024, 12:38:05.617, 1587811085617
89, 1128.98, 419.13, 598.89, 857.71, 0.048, 0.000, -1.024, 12:38:05.617, 1587811085617
90, 1177.10, 462.10, 636.31, 844.84, 0.048, 0.000, -1.024, 12:38:05.617, 1587811085617
91, 1199.97, 492.93, 627.11, 849.33, 0.048, 0.000, -1.024, 12:38:05.618, 1587811085618
92, 1157.34, 454.29, 586.66, 853.94, 0.048, 0.000, -1.024, 12:38:05.618, 1587811085618
93, 1132.72, 421.40, 593.14, 849.62, 0.048, 0.000, -1.024, 12:38:05.619, 1587811085619
94, 1177.17, 458.85, 635.92, 838.90, 0.048, 0.000, -1.024, 12:38:05.619, 1587811085619
95, 1198.17, 497.48, 622.12, 847.67, 0.048, 0.000, -1.024, 12:38:05.630, 1587811085630
96, 1155.23, 454.45, 585.66, 862.25, 0.048, 0.000, -1.024, 12:38:05.630, 1587811085630
97, 1132.63, 423.65, 594.58, 850.79, 0.048, 0.000, -1.024, 12:38:05.645, 1587811085645
98, 1179.32, 468.81, 639.58, 843.05, 0.048, 0.000, -1.024, 12:38:05.645, 1587811085645
99, 1194.95, 498.66, 629.34, 846.24, 0.048, 0.000, -1.024, 12:38:05.677, 1587811085677
100, 1150.77, 455.06, 586.36, 857.96, 0.048, 0.000, -1.024, 12:38:05.677, 1587811085677
101, 1129.61, 420.98, 595.50, 850.64, 0.048, 0.000, -1.024, 12:38:05.677, 1587811085677
102, 1171.99, 462.75, 637.27, 843.35, 0.048, 0.000, -1.024, 12:38:05.677, 1587811085677
103, 1192.82, 498.39, 625.44, 845.37, 0.048, 0.000, -1.024, 12:38:05.678, 1587811085678
104, 1143.69, 452.18, 583.95, 856.63, 0.048, 0.000, -1.024, 12:38:05.678, 1587811085678
105, 1130.79, 421.72, 592.60, 850.78, 0.048, 0.000, -1.024, 12:38:05.679, 1587811085679
106, 1173.49, 467.91, 634.34, 842.71, 0.048, 0.000, -1.024, 12:38:05.679, 1587811085679
107, 1191.89, 498.98, 625.79, 847.82, 0.048, 0.000, -1.024, 12:38:05.690, 1587811085690
108, 1148.35, 455.25, 584.42, 860.63, 0.048, 0.000, -1.024, 12:38:05.690, 1587811085690
109, 1128.35, 424.99, 595.03, 857.34, 0.048, 0.000, -1.024, 12:38:05.705, 1587811085705
110, 1174.56, 465.73, 636.51, 846.35, 0.048, 0.000, -1.024, 12:38:05.705, 1587811085705
111, 1193.90, 496.45, 628.59, 853.80, 0.048, 0.000, -1.024, 12:38:05.737, 1587811085737
112, 1152.11, 455.24, 582.68, 861.91, 0.048, 0.000, -1.024, 12:38:05.737, 1587811085737
113, 1134.10, 423.45, 591.74, 854.94, 0.048, 0.000, -1.024, 12:38:05.737, 1587811085737
114, 1173.57, 471.82, 638.80, 844.13, 0.048, 0.000, -1.024, 12:38:05.737, 1587811085737
115, 1195.61, 502.72, 629.68, 852.05, 0.048, 0.000, -1.024, 12:38:05.738, 1587811085738
116, 1152.55, 458.34, 585.66, 862.25, 0.048, 0.000, -1.024, 12:38:05.738, 1587811085738
117, 1132.22, 427.80, 598.32, 862.29, 0.048, 0.000, -1.024, 12:38:05.739, 1587811085739
118, 1176.74, 467.29, 638.93, 846.09, 0.048, 0.000, -1.024, 12:38:05.739, 1587811085739
119, 1194.17, 503.93, 631.38, 852.87, 0.048, 0.000, -1.024, 12:38:05.750, 1587811085750
120, 1151.54, 458.34, 588.05, 862.84, 0.048, 0.000, -1.024, 12:38:05.750, 1587811085750
121, 1132.96, 426.85, 598.51, 858.09, 0.048, 0.000, -1.024, 12:38:05.765, 1587811085765
122, 1174.14, 468.30, 642.58, 845.89, 0.048, 0.000, -1.024, 12:38:05.765, 1587811085765
123, 1193.72, 502.18, 631.91, 853.63, 0.048, 0.000, -1.024, 12:38:05.797, 1587811085797
124, 1148.77, 457.97, 590.38, 865.36, 0.048, 0.000, -1.024, 12:38:05.797, 1587811085797
125, 1131.89, 425.88, 598.11, 856.98, 0.048, 0.000, -1.024, 12:38:05.797, 1587811085797
126, 1174.80, 474.13, 638.52, 845.90, 0.048, 0.000, -1.024, 12:38:05.797, 1587811085797
127, 1201.35, 505.60, 627.33, 852.68, 0.048, 0.000, -1.024, 12:38:05.798, 1587811085798
128, 1158.02, 458.54, 588.36, 865.55, 0.048, 0.000, -1.024, 12:38:05.798, 1587811085798
129, 1133.56, 427.19, 590.78, 857.45, 0.048, 0.000, -1.024, 12:38:05.799, 1587811085799
130, 1176.06, 470.20, 639.39, 842.35, 0.048, 0.000, -1.024, 12:38:05.799, 1587811085799
131, 1196.59, 502.22, 631.80, 849.06, 0.048, 0.000, -1.024, 12:38:05.811, 1587811085811
132, 1154.11, 456.10, 581.67, 864.68, 0.048, 0.000, -1.024, 12:38:05.811, 1587811085811
133, 1128.21, 432.21, 597.79, 854.61, 0.048, 0.000, -1.024, 12:38:05.825, 1587811085825
134, 1173.89, 471.56, 633.94, 848.31, 0.048, 0.000, -1.024, 12:38:05.825, 1587811085825
135, 1198.55, 504.79, 627.12, 853.97, 0.048, 0.000, -1.024, 12:38:05.841, 1587811085841
136, 1156.98, 461.51, 586.87, 866.97, 0.048, 0.000, -1.024, 12:38:05.841, 1587811085841
137, 1132.07, 429.19, 598.90, 863.64, 0.048, 0.000, -1.024, 12:38:05.842, 1587811085842
138, 1176.14, 473.90, 642.05, 853.16, 0.048, 0.000, -1.024, 12:38:05.842, 1587811085842
139, 1202.17, 507.02, 631.73, 854.43, 0.048, 0.000, -1.024, 12:38:05.855, 1587811085855
140, 1153.93, 454.20, 583.86, 862.37, 0.048, 0.000, -1.024, 12:38:05.855, 1587811085855
141, 1135.02, 423.34, 593.65, 855.62, 0.048, 0.000, -1.024, 12:38:05.870, 1587811085870
142, 1175.65, 468.79, 634.95, 847.54, 0.048, 0.000, -1.024, 12:38:05.870, 1587811085870
143, 1194.59, 500.11, 625.73, 856.53, 0.048, 0.000, -1.024, 12:38:05.871, 1587811085871
144, 1153.35, 465.39, 590.29, 863.37, 0.048, 0.000, -1.024, 12:38:05.871, 1587811085871
145, 1131.11, 429.83, 597.49, 861.29, 0.048, 0.000, -1.024, 12:38:05.885, 1587811085885
146, 1176.28, 476.06, 642.44, 853.22, 0.048, 0.000, -1.024, 12:38:05.885, 1587811085885
147, 1194.16, 500.02, 623.86, 850.69, 0.048, 0.000, -1.024, 12:38:05.901, 1587811085901
148, 1151.16, 452.46, 584.90, 862.03, 0.048, 0.000, -1.024, 12:38:05.901, 1587811085901
149, 1126.03, 422.71, 590.98, 857.95, 0.048, 0.000, -1.024, 12:38:05.901, 1587811085901
150, 1176.05, 470.95, 637.90, 846.40, 0.048, 0.000, -1.024, 12:38:05.901, 1587811085901
151, 1192.62, 495.87, 627.72, 848.88, 0.048, 0.000, -1.024, 12:38:05.915, 1587811085915
152, 1152.43, 457.33, 586.58, 865.46, 0.048, 0.000, -1.024, 12:38:05.915, 1587811085915
153, 1136.70, 425.74, 596.47, 851.57, 0.048, 0.000, -1.024, 12:38:05.930, 1587811085930
154, 1175.29, 469.09, 631.51, 845.94, 0.048, 0.000, -1.024, 12:38:05.930, 1587811085930
155, 1195.24, 500.87, 626.23, 850.73, 0.048, 0.000, -1.024, 12:38:05.931, 1587811085931
156, 1149.97, 455.73, 578.19, 867.84, 0.048, 0.000, -1.024, 12:38:05.931, 1587811085931
157, 1131.35, 425.01, 590.04, 856.61, 0.048, 0.000, -1.024, 12:38:05.945, 1587811085945
158, 1174.36, 467.03, 634.26, 842.87, 0.048, 0.000, -1.024, 12:38:05.945, 1587811085945
159, 1198.19, 501.72, 624.30, 853.76, 0.048, 0.000, -1.024, 12:38:05.961, 1587811085961
160, 1152.49, 454.51, 581.17, 861.66, 0.048, 0.000, -1.024, 12:38:05.961, 1587811085961
161, 1133.43, 423.44, 591.23, 855.08, 0.048, 0.000, -1.024, 12:38:05.962, 1587811085962
162, 1175.73, 462.86, 630.31, 849.60, 0.048, 0.000, -1.024, 12:38:05.962, 1587811085962
