%OpenBCI Raw EEG Data
%Number of channels = 4
%Sample Rate = 200.0 Hz
%First Column = SampleIndex
%Last Column = Timestamp 
%Other Columns = EEG data in microvolts followed by Accel Data (in G) interleaved with Aux Data
0, 1135.30, 535.25, 680.97, 881.65, 0.032, 0.000, -1.024, 12:40:49.793, 1587811249793
1, 1148.14, 550.45, 664.68, 872.64, 0.032, 0.000, -1.024, 12:40:49.807, 1587811249807
2, 1111.15, 504.01, 629.28, 836.30, 0.032, 0.000, -1.024, 12:40:49.807, 1587811249807
3, 1094.52, 488.08, 645.12, 853.91, 0.032, 0.000, -1.024, 12:40:49.824, 1587811249824
4, 1129.62, 529.88, 678.25, 890.61, 0.032, 0.000, -1.024, 12:40:49.824, 1587811249824
5, 1149.19, 545.64, 662.50, 870.97, 0.032, 0.000, -1.024, 12:40:49.824, 1587811249824
6, 1110.27, 496.96, 625.07, 832.26, 0.016, 0.000, -0.528, 12:40:49.824, 1587811249824
7, 1094.99, 480.75, 632.80, 855.55, 0.016, 0.000, -0.528, 12:40:49.837, 1587811249837
8, 1130.12, 524.07, 671.66, 876.56, 0.016, 0.000, -0.528, 12:40:49.837, 1587811249837
9, 1146.66, 540.95, 655.75, 871.36, 0.016, 0.000, -0.528, 12:40:49.853, 1587811249853
10, 1110.63, 496.65, 623.03, 843.20, 0.016, 0.000, -0.528, 12:40:49.853, 1587811249853
11, 1096.34, 473.33, 634.36, 853.62, 0.016, 0.000, -0.528, 12:40:49.853, 1587811249853
12, 1134.74, 523.87, 673.92, 890.47, 0.016, 0.000, -0.528, 12:40:49.853, 1587811249853
13, 1150.19, 539.92, 657.63, 874.95, 0.016, 0.000, -0.528, 12:40:49.868, 1587811249868
14, 1115.03, 495.67, 620.35, 831.22, 0.016, 0.000, -0.528, 12:40:49.868, 1587811249868
15, 1099.85, 472.22, 636.64, 853.06, 0.016, 0.000, -0.528, 12:40:49.883, 1587811249883
16, 1136.62, 516.08, 669.36, 887.25, 0.016, 0.000, -0.528, 12:40:49.883, 1587811249883
17, 1150.60, 533.86, 654.49, 873.80, 0.016, 0.000, -0.528, 12:40:49.883, 1587811249883
18, 1113.89, 485.16, 616.12, 834.24, 0.016, 0.000, -0.528, 12:40:49.883, 1587811249883
19, 1100.20, 469.24, 629.28, 852.01, 0.016, 0.000, -0.528, 12:40:49.897, 1587811249897
20, 1137.21, 514.11, 660.95, 886.20, 0.016, 0.000, -0.528, 12:40:49.897, 1587811249897
21, 1149.89, 522.49, 645.20, 871.94, 0.016, 0.000, -0.528, 12:40:49.913, 1587811249913
22, 1114.55, 482.72, 613.12, 836.37, 0.016, 0.000, -0.528, 12:40:49.913, 1587811249913
23, 1102.46, 461.96, 624.05, 847.93, 0.016, 0.000, -0.528, 12:40:49.914, 1587811249914
24, 1133.30, 502.26, 654.08, 886.59, 0.016, 0.000, -0.528, 12:40:49.914, 1587811249914
25, 1149.98, 515.05, 637.22, 872.37, 0.016, 0.000, -0.528, 12:40:49.927, 1587811249927
26, 1112.32, 473.41, 608.59, 837.45, 0.032, 0.000, -0.784, 12:40:49.927, 1587811249927
27, 1104.34, 451.89, 614.41, 853.39, 0.032, 0.000, -0.784, 12:40:49.959, 1587811249959
28, 1143.18, 501.25, 652.30, 887.19, 0.032, 0.000, -0.784, 12:40:49.959, 1587811249959
29, 1151.83, 515.07, 632.59, 872.73, 0.032, 0.000, -0.784, 12:40:49.960, 1587811249960
30, 1120.63, 471.07, 603.96, 835.35, 0.032, 0.000, -0.784, 12:40:49.960, 1587811249960
31, 1104.02, 450.61, 612.25, 854.40, 0.032, 0.000, -0.784, 12:40:49.961, 1587811249961
32, 1140.17, 498.34, 648.61, 884.76, 0.032, 0.000, -0.784, 12:40:49.961, 1587811249961
33, 1155.40, 515.12, 632.96, 875.61, 0.032, 0.000, -0.784, 12:40:49.961, 1587811249961
34, 1123.45, 472.90, 600.40, 845.85, 0.032, 0.000, -0.784, 12:40:49.961, 1587811249961
35, 1107.49, 454.38, 615.17, 856.73, 0.032, 0.000, -0.784, 12:40:49.972, 1587811249972
36, 1145.44, 503.96, 652.56, 894.89, 0.032, 0.000, -0.784, 12:40:49.972, 1587811249972
37, 1167.95, 517.78, 639.43, 881.97, 0.032, 0.000, -0.784, 12:40:49.987, 1587811249987
38, 1128.53, 476.22, 608.50, 846.72, 0.032, 0.000, -0.784, 12:40:49.987, 1587811249987
39, 1113.04, 458.74, 618.13, 856.95, 0.032, 0.000, -0.784, 12:40:50.003, 1587811250003
40, 1147.26, 506.48, 654.27, 896.13, 0.032, 0.000, -0.784, 12:40:50.003, 1587811250003
41, 1164.03, 517.56, 637.13, 876.72, 0.032, 0.000, -0.784, 12:40:50.003, 1587811250003
42, 1128.77, 471.09, 595.49, 842.42, 0.032, 0.000, -0.784, 12:40:50.003, 1587811250003
43, 1110.16, 456.78, 619.44, 853.53, 0.032, 0.000, -0.784, 12:40:50.018, 1587811250018
44, 1152.95, 500.86, 654.13, 895.98, 0.032, 0.000, -0.784, 12:40:50.018, 1587811250018
45, 1163.24, 513.11, 635.39, 881.09, 0.032, 0.000, -0.784, 12:40:50.033, 1587811250033
46, 1123.90, 466.01, 598.80, 842.39, 0.032, 0.000, -0.912, 12:40:50.033, 1587811250033
47, 1112.06, 448.41, 612.09, 855.81, 0.032, 0.000, -0.912, 12:40:50.033, 1587811250033
48, 1149.85, 495.28, 650.51, 897.62, 0.032, 0.000, -0.912, 12:40:50.033, 1587811250033
49, 1165.67, 507.86, 634.84, 884.09, 0.032, 0.000, -0.912, 12:40:50.047, 1587811250047
50, 1126.57, 458.70, 593.57, 844.69, 0.032, 0.000, -0.912, 12:40:50.047, 1587811250047
51, 1114.74, 444.58, 611.94, 862.72, 0.032, 0.000, -0.912, 12:40:50.062, 1587811250062
52, 1152.80, 489.32, 647.38, 899.29, 0.032, 0.000, -0.912, 12:40:50.062, 1587811250062
53, 1166.05, 509.65, 634.75, 880.12, 0.032, 0.000, -0.912, 12:40:50.078, 1587811250078
54, 1122.67, 458.89, 598.42, 841.71, 0.032, 0.000, -0.912, 12:40:50.078, 1587811250078
55, 1114.48, 438.54, 605.98, 858.73, 0.032, 0.000, -0.912, 12:40:50.079, 1587811250079
56, 1148.68, 486.95, 638.30, 893.66, 0.032, 0.000, -0.912, 12:40:50.079, 1587811250079
57, 1163.50, 503.16, 623.14, 877.22, 0.032, 0.000, -0.912, 12:40:50.093, 1587811250093
58, 1132.10, 459.96, 591.24, 840.74, 0.032, 0.000, -0.912, 12:40:50.093, 1587811250093
59, 1121.14, 435.68, 604.94, 855.73, 0.032, 0.000, -0.912, 12:40:50.093, 1587811250093
60, 1161.41, 490.62, 641.10, 895.11, 0.032, 0.000, -0.912, 12:40:50.093, 1587811250093
61, 1170.97, 501.47, 623.58, 881.97, 0.032, 0.000, -0.912, 12:40:50.107, 1587811250107
62, 1128.92, 456.79, 589.78, 841.89, 0.032, 0.000, -0.912, 12:40:50.107, 1587811250107
63, 1116.37, 428.65, 596.63, 852.88, 0.032, 0.000, -0.912, 12:40:50.123, 1587811250123
64, 1156.52, 482.18, 637.88, 888.12, 0.032, 0.000, -0.912, 12:40:50.123, 1587811250123
65, 1167.01, 495.11, 620.99, 878.28, 0.032, 0.000, -0.912, 12:40:50.124, 1587811250124
66, 1133.31, 451.92, 586.24, 842.46, 0.032, 0.000, -0.960, 12:40:50.124, 1587811250124
67, 1123.84, 437.84, 603.34, 860.01, 0.032, 0.000, -0.960, 12:40:50.137, 1587811250137
68, 1154.04, 463.20, 624.00, 884.14, 0.032, 0.000, -0.960, 12:40:50.137, 1587811250137
69, 1173.93, 495.41, 629.77, 868.29, 0.032, 0.000, -0.960, 12:40:50.153, 1587811250153
70, 1150.45, 462.54, 604.05, 838.72, 0.032, 0.000, -0.960, 12:40:50.153, 1587811250153
71, 1128.54, 440.88, 618.25, 850.70, 0.032, 0.000, -0.960, 12:40:50.153, 1587811250153
72, 1168.98, 475.10, 647.38, 885.33, 0.032, 0.000, -0.960, 12:40:50.153, 1587811250153
73, 1185.31, 492.50, 637.49, 865.50, 0.032, 0.000, -0.960, 12:40:50.167, 1587811250167
74, 1148.39, 447.91, 600.70, 839.19, 0.032, 0.000, -0.960, 12:40:50.167, 1587811250167
75, 1133.59, 431.61, 608.98, 851.85, 0.032, 0.000, -0.960, 12:40:50.183, 1587811250183
76, 1167.18, 466.41, 636.95, 883.62, 0.032, 0.000, -0.960, 12:40:50.183, 1587811250183
77, 1179.53, 488.58, 622.60, 868.34, 0.032, 0.000, -0.960, 12:40:50.183, 1587811250183
78, 1139.97, 438.59, 587.21, 825.31, 0.032, 0.000, -0.960, 12:40:50.183, 1587811250183
79, 1130.63, 430.18, 607.97, 846.61, 0.032, 0.000, -0.960, 12:40:50.197, 1587811250197
80, 1168.63, 474.11, 638.34, 877.91, 0.032, 0.000, -0.960, 12:40:50.197, 1587811250197
81, 1181.67, 486.81, 623.10, 864.43, 0.032, 0.000, -0.960, 12:40:50.213, 1587811250213
82, 1137.07, 437.49, 588.13, 830.41, 0.032, 0.000, -0.960, 12:40:50.213, 1587811250213
83, 1120.81, 423.63, 599.04, 842.86, 0.032, 0.000, -0.960, 12:40:50.213, 1587811250213
84, 1157.18, 468.80, 628.80, 880.77, 0.032, 0.000, -0.960, 12:40:50.213, 1587811250213
85, 1175.65, 488.40, 620.20, 868.24, 0.032, 0.000, -0.960, 12:40:50.227, 1587811250227
86, 1137.21, 444.24, 588.79, 828.49, 0.032, 0.000, -0.992, 12:40:50.227, 1587811250227
87, 1127.70, 427.98, 604.73, 851.49, 0.032, 0.000, -0.992, 12:40:50.243, 1587811250243
88, 1165.12, 473.28, 638.72, 883.28, 0.032, 0.000, -0.992, 12:40:50.243, 1587811250243
89, 1174.09, 491.51, 625.20, 869.77, 0.032, 0.000, -0.992, 12:40:50.243, 1587811250243
90, 1137.04, 442.72, 588.31, 835.96, 0.032, 0.000, -0.992, 12:40:50.243, 1587811250243
91, 1127.36, 432.77, 604.07, 850.86, 0.032, 0.000, -0.992, 12:40:50.257, 1587811250257
92, 1167.18, 483.94, 642.87, 884.66, 0.032, 0.000, -0.992, 12:40:50.257, 1587811250257
93, 1175.87, 491.48, 625.50, 872.91, 0.032, 0.000, -0.992, 12:40:50.273, 1587811250273
94, 1149.16, 450.27, 598.02, 834.40, 0.032, 0.000, -0.992, 12:40:50.273, 1587811250273
95, 1130.75, 431.83, 607.13, 850.14, 0.032, 0.000, -0.992, 12:40:50.274, 1587811250274
96, 1170.31, 473.20, 642.00, 888.97, 0.032, 0.000, -0.992, 12:40:50.274, 1587811250274
97, 1183.41, 494.40, 628.23, 867.50, 0.032, 0.000, -0.992, 12:40:50.287, 1587811250287
98, 1140.08, 444.09, 583.45, 834.06, 0.032, 0.000, -0.992, 12:40:50.287, 1587811250287
99, 1132.76, 432.88, 599.41, 843.29, 0.032, 0.000, -0.992, 12:40:50.304, 1587811250304
100, 1168.74, 476.76, 639.09, 880.44, 0.032, 0.000, -0.992, 12:40:50.304, 1587811250304
101, 1184.14, 490.43, 625.13, 864.39, 0.032, 0.000, -0.992, 12:40:50.306, 1587811250306
102, 1148.19, 442.12, 591.01, 834.52, 0.032, 0.000, -0.992, 12:40:50.306, 1587811250306
103, 1131.51, 430.94, 608.11, 848.81, 0.032, 0.000, -0.992, 12:40:50.317, 1587811250317
104, 1169.75, 476.86, 640.99, 883.49, 0.032, 0.000, -0.992, 12:40:50.317, 1587811250317
105, 1176.76, 488.77, 623.95, 868.21, 0.032, 0.000, -0.992, 12:40:50.334, 1587811250334
106, 1148.39, 447.39, 591.56, 834.98, 0.032, 0.000, -1.008, 12:40:50.334, 1587811250334
107, 1131.36, 436.97, 604.01, 854.39, 0.032, 0.000, -1.008, 12:40:50.335, 1587811250335
108, 1169.54, 485.22, 639.67, 891.81, 0.032, 0.000, -1.008, 12:40:50.335, 1587811250335
109, 1181.50, 490.03, 618.66, 867.99, 0.032, 0.000, -1.008, 12:40:50.347, 1587811250347
110, 1143.90, 444.35, 583.88, 835.87, 0.032, 0.000, -1.008, 12:40:50.347, 1587811250347
111, 1132.26, 434.52, 607.18, 849.56, 0.032, 0.000, -1.008, 12:40:50.363, 1587811250363
112, 1166.89, 482.24, 643.12, 890.53, 0.032, 0.000, -1.008, 12:40:50.363, 1587811250363
113, 1173.39, 490.79, 621.70, 871.70, 0.032, 0.000, -1.008, 12:40:50.363, 1587811250363
114, 1137.76, 446.44, 580.23, 835.09, 0.032, 0.000, -1.008, 12:40:50.363, 1587811250363
115, 1121.76, 426.53, 594.47, 851.79, 0.032, 0.000, -1.008, 12:40:50.378, 1587811250378
116, 1163.22, 470.37, 632.79, 885.66, 0.032, 0.000, -1.008, 12:40:50.378, 1587811250378
117, 1174.49, 456.37, 595.78, 856.82, 0.032, 0.000, -1.008, 12:40:50.393, 1587811250393
118, 1139.48, 419.02, 572.11, 830.53, 0.032, 0.000, -1.008, 12:40:50.393, 1587811250393
119, 1134.02, 406.21, 578.71, 849.03, 0.032, 0.000, -1.008, 12:40:50.394, 1587811250394
120, 1170.04, 450.64, 610.21, 875.45, 0.032, 0.000, -1.008, 12:40:50.394, 1587811250394
121, 1187.56, 445.52, 586.31, 852.24, 0.032, 0.000, -1.008, 12:40:50.408, 1587811250408
122, 1155.54, 393.77, 541.78, 814.34, 0.032, 0.000, -1.008, 12:40:50.408, 1587811250408
123, 1156.27, 376.53, 553.07, 832.89, 0.032, 0.000, -1.008, 12:40:50.423, 1587811250423
124, 1173.46, 392.64, 578.25, 863.32, 0.032, 0.000, -1.008, 12:40:50.423, 1587811250423
125, 1168.69, 389.44, 571.38, 857.52, 0.032, 0.000, -1.008, 12:40:50.424, 1587811250424
126, 1168.33, 395.00, 560.32, 829.90, 0.032, 0.000, -1.024, 12:40:50.424, 1587811250424
127, 1191.78, 430.37, 571.35, 836.24, 0.032, 0.000, -1.024, 12:40:50.454, 1587811250454
128, 1185.21, 419.96, 568.31, 861.58, 0.032, 0.000, -1.024, 12:40:50.454, 1587811250454
129, 1145.34, 363.64, 559.76, 859.06, 0.032, 0.000, -1.024, 12:40:50.454, 1587811250454
130, 1146.06, 378.64, 570.78, 838.22, 0.032, 0.000, -1.024, 12:40:50.454, 1587811250454
131, 1183.94, 436.31, 583.16, 843.43, 0.032, 0.000, -1.024, 12:40:50.455, 1587811250455
132, 1178.29, 427.26, 575.68, 860.64, 0.032, 0.000, -1.024, 12:40:50.455, 1587811250455
133, 1134.83, 373.69, 565.65, 855.22, 0.032, 0.000, -1.024, 12:40:50.467, 1587811250467
134, 1141.01, 385.70, 573.76, 839.36, 0.032, 0.000, -1.024, 12:40:50.467, 1587811250467
135, 1183.52, 439.10, 582.46, 843.92, 0.032, 0.000, -1.024, 12:40:50.483, 1587811250483
136, 1174.97, 421.25, 576.35, 864.14, 0.032, 0.000, -1.024, 12:40:50.483, 1587811250483
137, 1127.95, 371.21, 565.17, 864.50, 0.032, 0.000, -1.024, 12:40:50.484, 1587811250484
138, 1142.34, 392.26, 581.66, 846.10, 0.032, 0.000, -1.024, 12:40:50.484, 1587811250484
139, 1184.27, 451.82, 592.05, 850.97, 0.032, 0.000, -1.024, 12:40:50.514, 1587811250514
140, 1174.07, 438.18, 579.57, 865.91, 0.032, 0.000, -1.024, 12:40:50.514, 1587811250514
141, 1125.55, 386.79, 570.99, 869.26, 0.032, 0.000, -1.024, 12:40:50.514, 1587811250514
142, 1141.14, 408.51, 587.23, 849.26, 0.032, 0.000, -1.024, 12:40:50.514, 1587811250514
143, 1182.72, 460.53, 597.79, 849.77, 0.032, 0.000, -1.024, 12:40:50.515, 1587811250515
144, 1162.98, 430.36, 581.36, 867.96, 0.032, 0.000, -1.024, 12:40:50.515, 1587811250515
145, 1111.13, 377.93, 576.91, 873.83, 0.032, 0.000, -1.024, 12:40:50.528, 1587811250528
146, 1132.97, 408.23, 591.23, 851.27, 0.032, 0.000, -1.040, 12:40:50.528, 1587811250528
147, 1178.51, 464.01, 598.38, 853.47, 0.032, 0.000, -1.040, 12:40:50.543, 1587811250543
148, 1161.74, 439.02, 580.62, 866.13, 0.032, 0.000, -1.040, 12:40:50.543, 1587811250543
149, 1119.60, 393.21, 573.44, 869.06, 0.032, 0.000, -1.040, 12:40:50.543, 1587811250543
150, 1140.10, 417.82, 594.53, 854.19, 0.032, 0.000, -1.040, 12:40:50.543, 1587811250543
151, 1183.92, 473.17, 603.69, 855.86, 0.032, 0.000, -1.040, 12:40:50.557, 1587811250557
152, 1171.75, 457.52, 593.34, 873.24, 0.032, 0.000, -1.040, 12:40:50.557, 1587811250557
153, 1128.63, 410.45, 589.12, 875.97, 0.032, 0.000, -1.040, 12:40:50.573, 1587811250573
154, 1149.41, 437.20, 598.23, 860.67, 0.032, 0.000, -1.040, 12:40:50.573, 1587811250573
155, 1195.92, 491.83, 611.45, 855.72, 0.032, 0.000, -1.040, 12:40:50.574, 1587811250574
156, 1179.77, 473.27, 600.83, 877.08, 0.032, 0.000, -1.040, 12:40:50.574, 1587811250574
157, 1137.80, 427.90, 591.81, 879.56, 0.032, 0.000, -1.040, 12:40:50.588, 1587811250588
158, 1160.82, 455.86, 605.77, 865.68, 0.032, 0.000, -1.040, 12:40:50.588, 1587811250588
159, 1206.88, 511.41, 617.86, 864.10, 0.032, 0.000, -1.040, 12:40:50.603, 1587811250603
160, 1182.21, 487.86, 601.89, 876.58, 0.032, 0.000, -1.040, 12:40:50.603, 1587811250603
161, 1142.63, 435.36, 592.17, 873.53, 0.032, 0.000, -1.040, 12:40:50.603, 1587811250603
162, 1163.40, 464.60, 609.96, 861.87, 0.032, 0.000, -1.040, 12:40:50.603, 1587811250603
163, 1203.13, 496.04, 609.53, 857.47, 0.032, 0.000, -1.040, 12:40:50.617, 1587811250617
164, 1177.32, 478.90, 600.89, 875.86, 0.032, 0.000, -1.040, 12:40:50.617, 1587811250617
165, 1143.20, 436.19, 595.24, 878.85, 0.032, 0.000, -1.040, 12:40:50.633, 1587811250633
166, 1160.51, 455.26, 608.39, 862.62, 0.032, 0.000, -1.024, 12:40:50.633, 1587811250633
167, 1194.91, 496.12, 611.09, 861.44, 0.032, 0.000, -1.024, 12:40:50.633, 1587811250633
168, 1172.34, 466.80, 601.59, 877.82, 0.032, 0.000, -1.024, 12:40:50.633, 1587811250633
169, 1121.73, 416.43, 585.71, 877.51, 0.032, 0.000, -1.024, 12:40:50.647, 1587811250647
170, 1142.20, 437.36, 598.55, 861.33, 0.032, 0.000, -1.024, 12:40:50.647, 1587811250647
171, 1181.82, 480.07, 605.53, 860.03, 0.032, 0.000, -1.024, 12:40:50.664, 1587811250664
172, 1159.92, 456.57, 592.67, 877.37, 0.032, 0.000, -1.024, 12:40:50.664, 1587811250664
173, 1120.17, 410.69, 586.89, 880.75, 0.032, 0.000, -1.024, 12:40:50.665, 1587811250665
174, 1142.49, 430.18, 599.60, 865.06, 0.032, 0.000, -1.024, 12:40:50.665, 1587811250665
175, 1179.17, 471.25, 606.18, 864.12, 0.032, 0.000, -1.024, 12:40:50.677, 1587811250677
176, 1153.89, 441.37, 586.80, 875.74, 0.032, 0.000, -1.024, 12:40:50.677, 1587811250677
177, 1118.89, 402.32, 583.99, 878.53, 0.032, 0.000, -1.024, 12:40:50.693, 1587811250693
178, 1143.25, 422.97, 592.17, 855.84, 0.032, 0.000, -1.024, 12:40:50.693, 1587811250693
179, 1178.35, 462.80, 594.39, 857.24, 0.032, 0.000, -1.024, 12:40:50.694, 1587811250694
180, 1154.67, 434.56, 583.53, 876.35, 0.032, 0.000, -1.024, 12:40:50.694, 1587811250694
181, 1114.96, 396.43, 577.49, 881.45, 0.032, 0.000, -1.024, 12:40:50.710, 1587811250710
182, 1138.04, 419.73, 586.59, 856.26, 0.032, 0.000, -1.024, 12:40:50.710, 1587811250710
183, 1176.48, 457.75, 592.77, 856.92, 0.032, 0.000, -1.024, 12:40:50.723, 1587811250723
184, 1156.70, 432.49, 574.04, 875.27, 0.032, 0.000, -1.024, 12:40:50.723, 1587811250723
185, 1119.30, 391.57, 572.31, 880.34, 0.032, 0.000, -1.024, 12:40:50.723, 1587811250723
186, 1138.68, 409.58, 583.61, 860.02, 0.032, 0.000, -1.040, 12:40:50.723, 1587811250723
187, 1173.81, 451.52, 588.45, 856.50, 0.032, 0.000, -1.040, 12:40:50.738, 1587811250738
188, 1156.77, 434.63, 581.81, 878.05, 0.032, 0.000, -1.040, 12:40:50.738, 1587811250738
189, 1121.91, 388.41, 571.44, 876.03, 0.032, 0.000, -1.040, 12:40:50.753, 1587811250753
190, 1136.99, 407.78, 587.62, 852.47, 0.032, 0.000, -1.040, 12:40:50.753, 1587811250753
191, 1173.51, 450.82, 589.30, 853.71, 0.032, 0.000, -1.040, 12:40:50.754, 1587811250754
192, 1157.21, 425.22, 574.17, 863.26, 0.032, 0.000, -1.040, 12:40:50.754, 1587811250754
193, 1109.32, 387.71, 568.68, 873.56, 0.032, 0.000, -1.040, 12:40:50.768, 1587811250768
194, 1136.28, 410.63, 588.56, 848.80, 0.032, 0.000, -1.040, 12:40:50.768, 1587811250768
195, 1176.47, 447.68, 588.31, 852.99, 0.032, 0.000, -1.040, 12:40:50.783, 1587811250783
196, 1149.53, 422.81, 584.13, 872.18, 0.032, 0.000, -1.040, 12:40:50.783, 1587811250783
197, 1130.47, 407.68, 588.23, 875.36, 0.032, 0.000, -1.040, 12:40:50.783, 1587811250783
198, 1147.25, 417.83, 599.97, 852.36, 0.032, 0.000, -1.040, 12:40:50.783, 1587811250783
199, 1178.61, 453.58, 599.32, 852.18, 0.032, 0.000, -1.040, 12:40:50.798, 1587811250798
200, 1166.99, 434.05, 594.33, 869.80, 0.032, 0.000, -1.040, 12:40:50.798, 1587811250798
0, 1126.41, 404.55, 589.20, 870.98, 0.032, 0.000, -1.040, 12:40:50.798, 1587811250798
1, 1146.81, 413.58, 594.79, 848.96, 0.032, 0.000, -1.040, 12:40:50.813, 1587811250813
2, 1177.01, 455.61, 601.33, 845.98, 0.032, 0.000, -1.040, 12:40:50.813, 1587811250813
3, 1162.15, 446.32, 597.31, 867.20, 0.032, 0.000, -1.040, 12:40:50.828, 1587811250828
4, 1125.52, 405.15, 591.04, 871.25, 0.032, 0.000, -1.040, 12:40:50.828, 1587811250828
5, 1140.66, 423.29, 599.82, 849.66, 0.032, 0.000, -1.040, 12:40:50.828, 1587811250828
6, 1177.26, 463.31, 605.45, 844.22, 0.032, 0.000, -1.024, 12:40:50.828, 1587811250828
7, 1160.60, 444.61, 596.66, 868.76, 0.032, 0.000, -1.024, 12:40:50.846, 1587811250846
8, 1123.11, 403.27, 581.26, 865.26, 0.032, 0.000, -1.024, 12:40:50.846, 1587811250846
9, 1136.84, 421.04, 593.47, 840.99, 0.032, 0.000, -1.024, 12:40:50.858, 1587811250858
10, 1173.56, 465.61, 602.57, 845.71, 0.032, 0.000, -1.024, 12:40:50.858, 1587811250858
11, 1154.04, 446.72, 589.14, 870.98, 0.032, 0.000, -1.024, 12:40:50.858, 1587811250858
12, 1118.85, 406.86, 589.55, 868.68, 0.032, 0.000, -1.024, 12:40:50.858, 1587811250858
13, 1128.63, 423.39, 601.20, 843.76, 0.032, 0.000, -1.024, 12:40:50.873, 1587811250873
14, 1167.56, 459.23, 601.31, 849.32, 0.032, 0.000, -1.024, 12:40:50.873, 1587811250873
15, 1152.10, 451.40, 598.23, 876.24, 0.032, 0.000, -1.024, 12:40:50.888, 1587811250888
16, 1120.43, 407.02, 590.28, 865.25, 0.032, 0.000, -1.024, 12:40:50.888, 1587811250888
17, 1135.88, 416.19, 595.45, 844.83, 0.032, 0.000, -1.024, 12:40:50.888, 1587811250888
18, 1166.13, 461.94, 605.81, 852.24, 0.032, 0.000, -1.024, 12:40:50.888, 1587811250888
19, 1150.07, 442.70, 585.44, 866.15, 0.032, 0.000, -1.024, 12:40:50.902, 1587811250902
20, 1117.77, 408.19, 591.51, 866.73, 0.032, 0.000, -1.024, 12:40:50.902, 1587811250902
21, 1129.88, 427.70, 602.48, 848.56, 0.032, 0.000, -1.024, 12:40:50.918, 1587811250918
22, 1157.22, 463.47, 603.75, 846.87, 0.032, 0.000, -1.024, 12:40:50.918, 1587811250918
23, 1143.94, 451.23, 595.58, 869.36, 0.032, 0.000, -1.024, 12:40:50.918, 1587811250918
24, 1108.73, 414.88, 590.09, 874.83, 0.032, 0.000, -1.024, 12:40:50.918, 1587811250918
25, 1124.00, 427.18, 600.35, 850.23, 0.032, 0.000, -1.024, 12:40:50.932, 1587811250932
26, 1158.30, 467.75, 606.98, 853.56, 0.032, 0.000, -1.024, 12:40:50.932, 1587811250932
27, 1143.91, 454.47, 600.85, 871.68, 0.032, 0.000, -1.024, 12:40:50.949, 1587811250949
28, 1113.11, 416.75, 595.66, 865.70, 0.032, 0.000, -1.024, 12:40:50.949, 1587811250949
29, 1125.12, 429.83, 597.45, 847.62, 0.032, 0.000, -1.024, 12:40:50.951, 1587811250951
30, 1158.52, 466.77, 602.53, 851.47, 0.032, 0.000, -1.024, 12:40:50.951, 1587811250951
31, 1143.10, 458.33, 597.23, 879.57, 0.032, 0.000, -1.024, 12:40:50.962, 1587811250962
32, 1108.06, 416.61, 591.90, 874.13, 0.032, 0.000, -1.024, 12:40:50.962, 1587811250962
33, 1123.15, 428.55, 600.68, 846.12, 0.032, 0.000, -1.024, 12:40:50.978, 1587811250978
34, 1152.77, 466.87, 605.07, 843.95, 0.032, 0.000, -1.024, 12:40:50.978, 1587811250978
35, 1139.32, 453.81, 597.64, 873.01, 0.032, 0.000, -1.024, 12:40:50.979, 1587811250979
36, 1110.87, 418.29, 590.69, 878.63, 0.032, 0.000, -1.024, 12:40:50.979, 1587811250979
37, 1123.54, 440.11, 609.13, 849.49, 0.032, 0.000, -1.024, 12:40:51.009, 1587811251009
38, 1160.85, 476.03, 616.28, 851.91, 0.032, 0.000, -1.024, 12:40:51.009, 1587811251009
39, 1148.62, 463.99, 600.73, 873.73, 0.032, 0.000, -1.024, 12:40:51.009, 1587811251009
40, 1115.41, 429.78, 596.04, 883.65, 0.032, 0.000, -1.024, 12:40:51.009, 1587811251009
41, 1122.75, 440.45, 608.86, 851.64, 0.032, 0.000, -1.024, 12:40:51.010, 1587811251010
42, 1158.43, 476.20, 611.71, 849.01, 0.032, 0.000, -1.024, 12:40:51.010, 1587811251010
43, 1151.02, 468.83, 602.52, 882.57, 0.032, 0.000, -1.024, 12:40:51.023, 1587811251023
44, 1115.44, 440.50, 604.40, 874.98, 0.032, 0.000, -1.024, 12:40:51.023, 1587811251023
45, 1124.69, 442.56, 608.39, 850.36, 0.032, 0.000, -1.024, 12:40:51.038, 1587811251038
46, 1160.92, 486.27, 617.32, 853.36, 0.032, 0.000, -1.040, 12:40:51.038, 1587811251038
47, 1147.77, 479.59, 610.83, 881.36, 0.032, 0.000, -1.040, 12:40:51.038, 1587811251038
48, 1112.95, 439.34, 600.83, 877.93, 0.032, 0.000, -1.040, 12:40:51.038, 1587811251038
49, 1123.45, 456.33, 615.81, 857.54, 0.032, 0.000, -1.040, 12:40:51.069, 1587811251069
50, 1156.12, 493.31, 616.81, 863.91, 0.032, 0.000, -1.040, 12:40:51.069, 1587811251069
51, 1149.81, 475.46, 607.29, 881.08, 0.032, 0.000, -1.040, 12:40:51.069, 1587811251069
52, 1110.40, 440.32, 600.84, 885.18, 0.032, 0.000, -1.040, 12:40:51.069, 1587811251069
53, 1123.37, 452.23, 606.43, 862.84, 0.032, 0.000, -1.040, 12:40:51.070, 1587811251070
54, 1155.60, 499.45, 619.13, 857.64, 0.032, 0.000, -1.040, 12:40:51.070, 1587811251070
55, 1146.05, 482.81, 610.08, 885.78, 0.032, 0.000, -1.040, 12:40:51.082, 1587811251082
56, 1108.52, 438.98, 596.68, 893.60, 0.032, 0.000, -1.040, 12:40:51.082, 1587811251082
57, 1120.41, 448.25, 604.15, 862.25, 0.032, 0.000, -1.040, 12:40:51.099, 1587811251099
58, 1151.48, 490.37, 611.63, 864.86, 0.032, 0.000, -1.040, 12:40:51.099, 1587811251099
59, 1143.68, 487.60, 608.30, 890.65, 0.032, 0.000, -1.040, 12:40:51.099, 1587811251099
60, 1106.24, 450.55, 600.49, 887.72, 0.032, 0.000, -1.040, 12:40:51.099, 1587811251099
61, 1121.24, 454.95, 605.73, 855.16, 0.032, 0.000, -1.040, 12:40:51.129, 1587811251129
62, 1150.10, 494.15, 616.05, 858.85, 0.032, 0.000, -1.040, 12:40:51.129, 1587811251129
63, 1144.10, 486.64, 607.18, 883.95, 0.032, 0.000, -1.040, 12:40:51.130, 1587811251130
64, 1108.92, 445.06, 603.11, 879.64, 0.032, 0.000, -1.040, 12:40:51.130, 1587811251130
65, 1121.33, 461.37, 611.58, 854.98, 0.032, 0.000, -1.040, 12:40:51.131, 1587811251131
66, 1157.30, 499.46, 618.55, 862.11, 0.032, 0.000, -1.024, 12:40:51.131, 1587811251131
67, 1149.42, 491.58, 609.11, 888.28, 0.032, 0.000, -1.024, 12:40:51.142, 1587811251142
68, 1112.36, 451.66, 603.85, 886.29, 0.032, 0.000, -1.024, 12:40:51.142, 1587811251142
69, 1121.58, 460.13, 607.46, 857.18, 0.032, 0.000, -1.024, 12:40:51.159, 1587811251159
70, 1157.22, 504.55, 615.48, 864.26, 0.032, 0.000, -1.024, 12:40:51.159, 1587811251159
71, 1144.71, 492.92, 608.55, 891.87, 0.032, 0.000, -1.024, 12:40:51.159, 1587811251159
72, 1108.46, 449.76, 605.24, 886.20, 0.032, 0.000, -1.024, 12:40:51.159, 1587811251159
73, 1116.76, 455.23, 601.01, 857.94, 0.032, 0.000, -1.024, 12:40:51.189, 1587811251189
74, 1149.64, 502.87, 616.92, 863.08, 0.032, 0.000, -1.024, 12:40:51.189, 1587811251189
75, 1141.15, 493.11, 610.07, 890.75, 0.032, 0.000, -1.024, 12:40:51.189, 1587811251189
76, 1103.54, 453.18, 598.23, 889.90, 0.032, 0.000, -1.024, 12:40:51.189, 1587811251189
77, 1113.78, 458.37, 603.29, 868.16, 0.032, 0.000, -1.024, 12:40:51.190, 1587811251190
78, 1150.08, 495.61, 611.06, 860.68, 0.032, 0.000, -1.024, 12:40:51.190, 1587811251190
79, 1138.57, 487.76, 604.80, 887.43, 0.032, 0.000, -1.024, 12:40:51.203, 1587811251203
80, 1101.90, 442.17, 594.98, 892.46, 0.032, 0.000, -1.024, 12:40:51.203, 1587811251203
81, 1117.23, 451.43, 599.34, 863.01, 0.032, 0.000, -1.024, 12:40:51.218, 1587811251218
82, 1152.10, 490.13, 607.12, 864.07, 0.032, 0.000, -1.024, 12:40:51.218, 1587811251218
83, 1150.06, 484.99, 603.59, 888.73, 0.032, 0.000, -1.024, 12:40:51.218, 1587811251218
84, 1112.87, 445.50, 598.54, 884.35, 0.032, 0.000, -1.024, 12:40:51.218, 1587811251218
85, 1127.40, 453.03, 609.94, 857.28, 0.032, 0.000, -1.024, 12:40:51.233, 1587811251233
86, 1161.37, 495.97, 617.13, 862.89, 0.032, 0.000, -1.024, 12:40:51.233, 1587811251233
87, 1154.03, 490.72, 610.87, 893.80, 0.032, 0.000, -1.024, 12:40:51.248, 1587811251248
88, 1116.88, 445.80, 603.74, 884.54, 0.032, 0.000, -1.024, 12:40:51.248, 1587811251248
89, 1124.97, 449.68, 604.56, 855.17, 0.032, 0.000, -1.024, 12:40:51.249, 1587811251249
90, 1160.77, 495.01, 613.94, 862.34, 0.032, 0.000, -1.024, 12:40:51.249, 1587811251249
91, 1145.62, 481.83, 603.07, 885.90, 0.032, 0.000, -1.024, 12:40:51.263, 1587811251263
92, 1109.33, 439.18, 596.32, 878.64, 0.032, 0.000, -1.024, 12:40:51.263, 1587811251263
93, 1115.81, 445.35, 595.21, 855.05, 0.032, 0.000, -1.024, 12:40:51.278, 1587811251278
94, 1144.78, 480.76, 602.23, 854.48, 0.032, 0.000, -1.024, 12:40:51.278, 1587811251278
95, 1134.34, 472.86, 596.10, 880.51, 0.032, 0.000, -1.024, 12:40:51.278, 1587811251278
96, 1104.41, 437.64, 589.90, 877.14, 0.032, 0.000, -1.024, 12:40:51.278, 1587811251278
97, 1114.95, 451.27, 606.31, 858.55, 0.032, 0.000, -1.024, 12:40:51.292, 1587811251292
98, 1150.88, 475.96, 597.01, 853.96, 0.032, 0.000, -1.024, 12:40:51.292, 1587811251292
99, 1148.61, 477.10, 603.82, 879.77, 0.032, 0.000, -1.024, 12:40:51.308, 1587811251308
100, 1112.89, 436.39, 592.40, 872.26, 0.032, 0.000, -1.024, 12:40:51.308, 1587811251308
101, 1134.12, 453.07, 609.07, 852.73, 0.032, 0.000, -1.024, 12:40:51.309, 1587811251309
102, 1163.03, 489.01, 610.74, 850.55, 0.032, 0.000, -1.024, 12:40:51.309, 1587811251309
103, 1151.50, 477.64, 604.47, 878.60, 0.032, 0.000, -1.024, 12:40:51.322, 1587811251322
104, 1112.17, 439.01, 593.54, 871.12, 0.032, 0.000, -1.024, 12:40:51.322, 1587811251322
105, 1127.05, 443.47, 602.96, 852.94, 0.032, 0.000, -1.024, 12:40:51.338, 1587811251338
106, 1164.12, 481.36, 603.68, 846.98, 0.032, 0.000, -1.040, 12:40:51.338, 1587811251338
107, 1152.87, 477.56, 600.27, 875.48, 0.032, 0.000, -1.040, 12:40:51.339, 1587811251339
108, 1115.89, 434.96, 592.21, 872.28, 0.032, 0.000, -1.040, 12:40:51.339, 1587811251339
109, 1126.94, 440.77, 601.17, 847.07, 0.032, 0.000, -1.040, 12:40:51.352, 1587811251352
110, 1162.55, 478.81, 601.39, 848.42, 0.032, 0.000, -1.040, 12:40:51.352, 1587811251352
111, 1153.05, 469.42, 599.15, 876.01, 0.032, 0.000, -1.040, 12:40:51.368, 1587811251368
112, 1116.04, 428.31, 585.38, 867.98, 0.032, 0.000, -1.040, 12:40:51.368, 1587811251368
113, 1128.91, 431.80, 596.13, 846.50, 0.032, 0.000, -1.040, 12:40:51.368, 1587811251368
114, 1166.84, 479.88, 605.25, 852.52, 0.032, 0.000, -1.040, 12:40:51.368, 1587811251368
115, 1151.69, 462.81, 596.89, 873.38, 0.032, 0.000, -1.040, 12:40:51.382, 1587811251382
116, 1123.30, 431.77, 595.50, 873.84, 0.032, 0.000, -1.040, 12:40:51.382, 1587811251382
117, 1138.36, 438.28, 601.19, 850.46, 0.032, 0.000, -1.040, 12:40:51.398, 1587811251398
118, 1178.26, 479.64, 608.52, 848.36, 0.032, 0.000, -1.040, 12:40:51.398, 1587811251398
119, 1158.48, 473.28, 606.77, 874.30, 0.032, 0.000, -1.040, 12:40:51.399, 1587811251399
120, 1125.93, 420.06, 589.65, 873.64, 0.032, 0.000, -1.040, 12:40:51.399, 1587811251399
121, 1136.76, 429.32, 597.60, 842.75, 0.032, 0.000, -1.040, 12:40:51.413, 1587811251413
122, 1180.73, 490.20, 624.94, 845.36, 0.032, 0.000, -1.040, 12:40:51.413, 1587811251413
123, 1168.15, 471.96, 607.44, 879.34, 0.032, 0.000, -1.040, 12:40:51.428, 1587811251428
124, 1133.31, 422.72, 599.24, 871.91, 0.032, 0.000, -1.040, 12:40:51.428, 1587811251428
125, 1147.08, 432.34, 610.41, 842.98, 0.032, 0.000, -1.040, 12:40:51.428, 1587811251428
126, 1185.78, 471.52, 614.34, 840.97, 0.032, 0.000, -1.040, 12:40:51.428, 1587811251428
127, 1169.53, 462.43, 604.61, 873.06, 0.032, 0.000, -1.040, 12:40:51.443, 1587811251443
128, 1131.98, 415.43, 597.42, 871.30, 0.032, 0.000, -1.040, 12:40:51.443, 1587811251443
129, 1146.46, 432.32, 604.66, 846.94, 0.032, 0.000, -1.040, 12:40:51.459, 1587811251459
130, 1180.32, 470.41, 612.29, 845.55, 0.032, 0.000, -1.040, 12:40:51.459, 1587811251459
131, 1164.52, 460.19, 608.80, 871.92, 0.032, 0.000, -1.040, 12:40:51.459, 1587811251459
132, 1132.12, 412.67, 595.46, 866.46, 0.032, 0.000, -1.040, 12:40:51.459, 1587811251459
133, 1145.14, 421.67, 596.21, 840.62, 0.032, 0.000, -1.040, 12:40:51.472, 1587811251472
134, 1185.38, 471.17, 614.41, 832.66, 0.032, 0.000, -1.040, 12:40:51.472, 1587811251472
135, 1165.65, 461.61, 604.54, 872.45, 0.032, 0.000, -1.040, 12:40:51.488, 1587811251488
136, 1135.54, 419.75, 597.14, 862.12, 0.032, 0.000, -1.040, 12:40:51.488, 1587811251488
137, 1141.42, 424.61, 601.55, 832.63, 0.032, 0.000, -1.040, 12:40:51.489, 1587811251489
138, 1173.57, 466.36, 602.11, 838.45, 0.032, 0.000, -1.040, 12:40:51.489, 1587811251489
139, 1165.29, 454.20, 600.65, 859.46, 0.032, 0.000, -1.040, 12:40:51.502, 1587811251502
140, 1130.43, 414.39, 592.39, 866.75, 0.032, 0.000, -1.040, 12:40:51.502, 1587811251502
141, 1143.13, 426.77, 603.94, 830.13, 0.032, 0.000, -1.040, 12:40:51.519, 1587811251519
142, 1179.98, 471.45, 611.99, 842.14, 0.032, 0.000, -1.040, 12:40:51.519, 1587811251519
143, 1169.92, 461.02, 602.04, 866.66, 0.032, 0.000, -1.040, 12:40:51.520, 1587811251520
144, 1132.77, 418.53, 594.88, 862.88, 0.032, 0.000, -1.040, 12:40:51.520, 1587811251520
145, 1139.57, 432.58, 605.93, 838.44, 0.032, 0.000, -1.040, 12:40:51.532, 1587811251532
146, 1172.29, 467.58, 610.33, 838.07, 0.032, 0.000, -1.024, 12:40:51.532, 1587811251532
147, 1157.55, 452.49, 597.77, 861.62, 0.032, 0.000, -1.024, 12:40:51.548, 1587811251548
148, 1121.55, 412.10, 591.75, 858.82, 0.032, 0.000, -1.024, 12:40:51.548, 1587811251548
149, 1132.76, 426.57, 599.66, 833.45, 0.032, 0.000, -1.024, 12:40:51.549, 1587811251549
150, 1170.82, 471.98, 611.96, 838.02, 0.032, 0.000, -1.024, 12:40:51.549, 1587811251549
151, 1158.73, 461.54, 602.60, 859.23, 0.032, 0.000, -1.024, 12:40:51.562, 1587811251562
152, 1118.73, 417.79, 590.34, 859.04, 0.032, 0.000, -1.024, 12:40:51.562, 1587811251562
153, 1130.28, 434.61, 604.32, 830.36, 0.032, 0.000, -1.024, 12:40:51.578, 1587811251578
154, 1161.09, 473.84, 610.16, 837.90, 0.032, 0.000, -1.024, 12:40:51.578, 1587811251578
155, 1153.13, 460.02, 606.74, 863.79, 0.032, 0.000, -1.024, 12:40:51.578, 1587811251578
156, 1116.40, 413.68, 583.45, 856.32, 0.032, 0.000, -1.024, 12:40:51.578, 1587811251578
157, 1126.18, 428.76, 592.91, 835.79, 0.032, 0.000, -1.024, 12:40:51.593, 1587811251593
158, 1159.40, 471.24, 601.04, 840.66, 0.032, 0.000, -1.024, 12:40:51.593, 1587811251593
159, 1145.94, 454.72, 590.23, 865.55, 0.032, 0.000, -1.024, 12:40:51.624, 1587811251624
160, 1108.32, 410.76, 582.95, 859.22, 0.032, 0.000, -1.024, 12:40:51.624, 1587811251624
161, 1125.54, 431.29, 592.93, 833.26, 0.032, 0.000, -1.024, 12:40:51.625, 1587811251625
162, 1162.14, 478.09, 611.69, 833.73, 0.032, 0.000, -1.024, 12:40:51.625, 1587811251625
163, 1150.48, 459.85, 601.07, 864.20, 0.032, 0.000, -1.024, 12:40:51.626, 1587811251626
164, 1112.44, 422.79, 590.75, 868.54, 0.032, 0.000, -1.024, 12:40:51.626, 1587811251626
165, 1134.35, 444.75, 611.67, 833.73, 0.032, 0.000, -1.024, 12:40:51.627, 1587811251627
166, 1167.28, 482.83, 617.58, 841.54, 0.032, 0.000, -1.040, 12:40:51.627, 1587811251627
167, 1158.38, 471.48, 609.68, 866.94, 0.032, 0.000, -1.040, 12:40:51.637, 1587811251637
168, 1120.73, 425.59, 598.24, 862.59, 0.032, 0.000, -1.040, 12:40:51.637, 1587811251637
169, 1130.04, 441.98, 611.54, 839.64, 0.032, 0.000, -1.040, 12:40:51.652, 1587811251652
170, 1163.40, 491.10, 620.08, 849.77, 0.032, 0.000, -1.040, 12:40:51.652, 1587811251652
171, 1154.86, 476.99, 603.52, 874.39, 0.032, 0.000, -1.040, 12:40:51.668, 1587811251668
172, 1121.33, 429.01, 600.49, 869.23, 0.032, 0.000, -1.040, 12:40:51.668, 1587811251668
173, 1137.33, 447.91, 614.70, 852.15, 0.032, 0.000, -1.040, 12:40:51.683, 1587811251683
174, 1164.92, 479.79, 615.52, 842.61, 0.032, 0.000, -1.040, 12:40:51.683, 1587811251683
175, 1147.74, 471.77, 608.48, 868.73, 0.032, 0.000, -1.040, 12:40:51.683, 1587811251683
176, 1122.14, 435.39, 602.44, 871.56, 0.032, 0.000, -1.040, 12:40:51.683, 1587811251683
177, 1129.32, 440.06, 604.75, 837.69, 0.032, 0.000, -1.040, 12:40:51.699, 1587811251699
178, 1167.41, 478.41, 614.52, 841.58, 0.032, 0.000, -1.040, 12:40:51.699, 1587811251699
179, 1152.03, 468.66, 611.07, 870.67, 0.032, 0.000, -1.040, 12:40:51.699, 1587811251699
180, 1117.67, 427.95, 604.83, 872.85, 0.032, 0.000, -1.040, 12:40:51.699, 1587811251699
181, 1131.93, 442.80, 606.87, 846.74, 0.032, 0.000, -1.040, 12:40:51.712, 1587811251712
182, 1159.12, 478.22, 614.64, 852.13, 0.032, 0.000, -1.040, 12:40:51.712, 1587811251712
183, 1148.36, 462.20, 602.67, 864.88, 0.032, 0.000, -1.040, 12:40:51.744, 1587811251744
184, 1113.94, 427.06, 602.91, 861.67, 0.032, 0.000, -1.040, 12:40:51.744, 1587811251744
185, 1128.08, 443.28, 608.25, 842.35, 0.032, 0.000, -1.040, 12:40:51.745, 1587811251745
186, 1163.90, 484.76, 618.04, 848.39, 0.032, 0.000, -1.040, 12:40:51.745, 1587811251745
187, 1145.12, 466.43, 601.53, 868.36, 0.032, 0.000, -1.040, 12:40:51.746, 1587811251746
188, 1114.03, 428.38, 601.52, 868.88, 0.032, 0.000, -1.040, 12:40:51.746, 1587811251746
189, 1136.63, 450.00, 614.67, 843.42, 0.032, 0.000, -1.040, 12:40:51.746, 1587811251746
190, 1172.00, 485.03, 615.18, 843.84, 0.032, 0.000, -1.040, 12:40:51.746, 1587811251746
191, 1158.84, 477.59, 614.46, 871.64, 0.032, 0.000, -1.040, 12:40:51.757, 1587811251757
192, 1116.67, 433.52, 599.11, 868.88, 0.032, 0.000, -1.040, 12:40:51.757, 1587811251757
193, 1134.01, 444.27, 613.84, 841.56, 0.032, 0.000, -1.040, 12:40:51.773, 1587811251773
194, 1163.95, 483.29, 613.22, 843.74, 0.032, 0.000, -1.040, 12:40:51.773, 1587811251773
195, 1155.69, 470.37, 605.71, 870.00, 0.032, 0.000, -1.040, 12:40:51.788, 1587811251788
196, 1118.53, 429.71, 602.05, 862.56, 0.032, 0.000, -1.040, 12:40:51.788, 1587811251788
197, 1133.31, 442.29, 608.37, 837.63, 0.032, 0.000, -1.040, 12:40:51.788, 1587811251788
198, 1169.41, 476.36, 610.59, 841.41, 0.032, 0.000, -1.040, 12:40:51.788, 1587811251788
199, 1150.96, 468.70, 606.66, 865.60, 0.032, 0.000, -1.040, 12:40:51.804, 1587811251804
200, 1120.93, 428.22, 597.95, 859.30, 0.032, 0.000, -1.040, 12:40:51.804, 1587811251804
0, 1129.25, 429.13, 601.69, 832.85, 0.032, 0.000, -1.040, 12:40:51.805, 1587811251805
1, 1168.64, 478.37, 613.82, 839.83, 0.032, 0.000, -1.040, 12:40:51.817, 1587811251817
2, 1151.80, 461.32, 599.07, 870.62, 0.032, 0.000, -1.040, 12:40:51.817, 1587811251817
3, 1118.09, 423.58, 594.27, 865.09, 0.032, 0.000, -1.040, 12:40:51.833, 1587811251833
4, 1130.30, 435.84, 597.41, 836.51, 0.032, 0.000, -1.040, 12:40:51.833, 1587811251833
5, 1161.82, 466.56, 604.39, 836.06, 0.032, 0.000, -1.040, 12:40:51.834, 1587811251834
6, 1150.74, 456.47, 593.36, 868.71, 0.032, 0.000, -1.024, 12:40:51.834, 1587811251834
7, 1120.40, 422.70, 592.29, 861.34, 0.032, 0.000, -1.024, 12:40:51.847, 1587811251847
8, 1132.31, 436.48, 606.21, 839.66, 0.032, 0.000, -1.024, 12:40:51.847, 1587811251847
9, 1167.94, 476.56, 616.33, 833.92, 0.032, 0.000, -1.024, 12:40:51.863, 1587811251863
10, 1158.77, 458.62, 600.01, 865.24, 0.032, 0.000, -1.024, 12:40:51.863, 1587811251863
11, 1124.17, 418.44, 595.33, 861.25, 0.032, 0.000, -1.024, 12:40:51.864, 1587811251864
12, 1138.96, 426.22, 599.56, 835.90, 0.032, 0.000, -1.024, 12:40:51.864, 1587811251864
13, 1173.61, 468.11, 610.67, 835.37, 0.032, 0.000, -1.024, 12:40:51.894, 1587811251894
14, 1158.77, 445.72, 595.10, 860.45, 0.032, 0.000, -1.024, 12:40:51.894, 1587811251894
15, 1124.35, 404.98, 586.06, 858.54, 0.032, 0.000, -1.024, 12:40:51.894, 1587811251894
16, 1138.70, 411.85, 593.50, 826.70, 0.032, 0.000, -1.024, 12:40:51.894, 1587811251894
17, 1175.48, 456.25, 597.05, 823.47, 0.032, 0.000, -1.024, 12:40:51.895, 1587811251895
18, 1159.11, 434.60, 584.93, 849.33, 0.032, 0.000, -1.024, 12:40:51.895, 1587811251895
19, 1126.21, 397.41, 579.32, 846.37, 0.032, 0.000, -1.024, 12:40:51.907, 1587811251907
20, 1138.41, 406.97, 592.83, 824.20, 0.032, 0.000, -1.024, 12:40:51.907, 1587811251907
21, 1174.20, 443.42, 584.58, 825.47, 0.032, 0.000, -1.024, 12:40:51.923, 1587811251923
22, 1162.73, 435.30, 586.65, 846.61, 0.032, 0.000, -1.024, 12:40:51.923, 1587811251923
23, 1126.45, 385.58, 571.68, 844.21, 0.032, 0.000, -1.024, 12:40:51.923, 1587811251923
24, 1142.40, 403.08, 582.68, 816.30, 0.032, 0.000, -1.024, 12:40:51.923, 1587811251923
25, 1176.63, 433.69, 583.84, 820.41, 0.032, 0.000, -1.024, 12:40:51.937, 1587811251937
26, 1164.17, 417.64, 577.58, 845.61, 0.032, 0.000, -1.040, 12:40:51.937, 1587811251937
27, 1130.42, 385.70, 579.61, 844.67, 0.032, 0.000, -1.040, 12:40:51.953, 1587811251953
28, 1142.78, 392.25, 578.99, 817.24, 0.032, 0.000, -1.040, 12:40:51.953, 1587811251953
29, 1178.38, 438.08, 590.18, 821.60, 0.032, 0.000, -1.040, 12:40:51.953, 1587811251953
30, 1170.08, 423.99, 583.13, 842.46, 0.032, 0.000, -1.040, 12:40:51.953, 1587811251953
31, 1134.37, 386.36, 579.54, 847.09, 0.032, 0.000, -1.040, 12:40:51.967, 1587811251967
32, 1144.90, 402.92, 577.33, 827.07, 0.032, 0.000, -1.040, 12:40:51.967, 1587811251967
33, 1182.32, 441.41, 590.73, 831.30, 0.032, 0.000, -1.040, 12:40:51.984, 1587811251984
34, 1167.81, 430.12, 583.32, 851.09, 0.032, 0.000, -1.040, 12:40:51.984, 1587811251984
35, 1137.98, 384.38, 574.51, 848.07, 0.032, 0.000, -1.040, 12:40:51.984, 1587811251984
36, 1147.40, 398.01, 584.50, 822.47, 0.032, 0.000, -1.040, 12:40:51.984, 1587811251984
37, 1181.33, 437.69, 587.41, 819.67, 0.032, 0.000, -1.040, 12:40:51.997, 1587811251997
38, 1167.01, 430.60, 586.25, 847.53, 0.032, 0.000, -1.040, 12:40:51.997, 1587811251997
39, 1132.96, 386.07, 577.14, 849.30, 0.032, 0.000, -1.040, 12:40:52.014, 1587811252014
40, 1143.56, 404.56, 588.54, 820.49, 0.032, 0.000, -1.040, 12:40:52.014, 1587811252014
41, 1173.70, 437.18, 585.50, 831.35, 0.032, 0.000, -1.040, 12:40:52.014, 1587811252014
42, 1163.44, 432.37, 582.46, 853.58, 0.032, 0.000, -1.040, 12:40:52.014, 1587811252014
43, 1126.01, 387.70, 575.51, 848.07, 0.032, 0.000, -1.040, 12:40:52.027, 1587811252027
44, 1137.73, 403.97, 589.81, 831.17, 0.032, 0.000, -1.040, 12:40:52.027, 1587811252027
45, 1179.74, 446.02, 597.48, 827.05, 0.032, 0.000, -1.040, 12:40:52.043, 1587811252043
46, 1165.72, 433.14, 590.59, 850.90, 0.032, 0.000, -1.040, 12:40:52.043, 1587811252043
47, 1128.44, 395.49, 583.43, 856.78, 0.032, 0.000, -1.040, 12:40:52.044, 1587811252044
48, 1144.84, 410.64, 588.04, 830.58, 0.032, 0.000, -1.040, 12:40:52.044, 1587811252044
49, 1173.82, 450.44, 593.22, 829.78, 0.032, 0.000, -1.040, 12:40:52.057, 1587811252057
50, 1161.77, 441.36, 592.70, 860.08, 0.032, 0.000, -1.040, 12:40:52.057, 1587811252057
51, 1125.43, 396.49, 583.71, 855.57, 0.032, 0.000, -1.040, 12:40:52.073, 1587811252073
52, 1140.31, 409.30, 589.49, 825.93, 0.032, 0.000, -1.040, 12:40:52.073, 1587811252073
53, 1180.37, 456.68, 605.09, 830.89, 0.032, 0.000, -1.040, 12:40:52.073, 1587811252073
54, 1161.98, 452.61, 598.88, 857.04, 0.032, 0.000, -1.040, 12:40:52.073, 1587811252073
55, 1127.71, 411.02, 598.17, 857.52, 0.032, 0.000, -1.040, 12:40:52.088, 1587811252088
56, 1138.49, 424.43, 595.57, 835.33, 0.032, 0.000, -1.040, 12:40:52.088, 1587811252088
57, 1176.86, 468.46, 611.26, 836.32, 0.032, 0.000, -1.040, 12:40:52.103, 1587811252103
58, 1161.44, 453.47, 602.74, 858.89, 0.032, 0.000, -1.040, 12:40:52.103, 1587811252103
59, 1129.31, 411.07, 593.36, 852.58, 0.032, 0.000, -1.040, 12:40:52.103, 1587811252103
60, 1142.34, 428.34, 601.87, 827.94, 0.032, 0.000, -1.040, 12:40:52.103, 1587811252103
61, 1176.09, 464.12, 608.02, 829.28, 0.032, 0.000, -1.040, 12:40:52.119, 1587811252119
62, 1154.45, 451.80, 597.61, 860.80, 0.032, 0.000, -1.040, 12:40:52.119, 1587811252119
63, 1118.20, 415.55, 593.34, 854.65, 0.032, 0.000, -1.040, 12:40:52.133, 1587811252133
64, 1135.40, 424.93, 598.83, 829.91, 0.032, 0.000, -1.040, 12:40:52.133, 1587811252133
65, 1171.22, 473.77, 611.45, 836.21, 0.032, 0.000, -1.040, 12:40:52.133, 1587811252133
66, 1151.58, 457.01, 599.61, 862.42, 0.032, 0.000, -1.024, 12:40:52.133, 1587811252133
67, 1111.30, 419.12, 595.77, 856.25, 0.032, 0.000, -1.024, 12:40:52.147, 1587811252147
68, 1133.27, 432.33, 600.75, 828.54, 0.032, 0.000, -1.024, 12:40:52.147, 1587811252147
69, 1158.28, 467.08, 602.24, 831.16, 0.032, 0.000, -1.024, 12:40:52.163, 1587811252163
70, 1148.88, 450.75, 596.14, 857.02, 0.032, 0.000, -1.024, 12:40:52.163, 1587811252163
71, 1117.52, 413.52, 588.75, 854.09, 0.032, 0.000, -1.024, 12:40:52.178, 1587811252178
72, 1129.10, 436.74, 601.37, 830.21, 0.032, 0.000, -1.024, 12:40:52.178, 1587811252178
73, 1168.58, 472.10, 605.63, 835.04, 0.032, 0.000, -1.024, 12:40:52.178, 1587811252178
74, 1145.48, 459.67, 594.71, 861.43, 0.032, 0.000, -1.024, 12:40:52.178, 1587811252178
75, 1112.31, 422.09, 594.00, 860.76, 0.032, 0.000, -1.024, 12:40:52.194, 1587811252194
76, 1129.86, 437.95, 602.77, 841.18, 0.032, 0.000, -1.024, 12:40:52.194, 1587811252194
77, 1166.41, 480.19, 613.74, 843.20, 0.032, 0.000, -1.024, 12:40:52.194, 1587811252194
78, 1150.64, 470.57, 606.26, 866.56, 0.032, 0.000, -1.024, 12:40:52.194, 1587811252194
79, 1109.10, 428.78, 593.85, 863.04, 0.032, 0.000, -1.024, 12:40:52.208, 1587811252208
80, 1126.18, 443.29, 605.18, 831.87, 0.032, 0.000, -1.024, 12:40:52.208, 1587811252208
81, 1158.83, 486.52, 605.80, 843.17, 0.032, 0.000, -1.024, 12:40:52.239, 1587811252239
82, 1145.89, 469.17, 601.11, 866.05, 0.032, 0.000, -1.024, 12:40:52.239, 1587811252239
83, 1114.38, 437.57, 600.47, 863.90, 0.032, 0.000, -1.024, 12:40:52.240, 1587811252240
84, 1127.82, 444.72, 601.53, 841.02, 0.032, 0.000, -1.024, 12:40:52.240, 1587811252240
85, 1166.68, 494.72, 616.12, 840.35, 0.032, 0.000, -1.024, 12:40:52.241, 1587811252241
86, 1149.21, 480.91, 607.24, 868.83, 0.032, 0.000, -1.040, 12:40:52.241, 1587811252241
87, 1114.78, 436.06, 600.57, 867.54, 0.032, 0.000, -1.040, 12:40:52.242, 1587811252242
88, 1126.74, 444.24, 603.97, 841.98, 0.032, 0.000, -1.040, 12:40:52.242, 1587811252242
89, 1160.12, 490.73, 612.75, 844.61, 0.032, 0.000, -1.040, 12:40:52.252, 1587811252252
90, 1152.54, 480.32, 608.32, 874.15, 0.032, 0.000, -1.040, 12:40:52.252, 1587811252252
91, 1113.14, 438.09, 598.14, 870.89, 0.032, 0.000, -1.040, 12:40:52.267, 1587811252267
92, 1129.73, 459.28, 610.48, 846.87, 0.032, 0.000, -1.040, 12:40:52.267, 1587811252267
93, 1157.85, 488.88, 613.51, 850.37, 0.032, 0.000, -1.040, 12:40:52.283, 1587811252283
94, 1147.61, 480.74, 606.88, 878.30, 0.032, 0.000, -1.040, 12:40:52.283, 1587811252283
95, 1108.16, 445.27, 603.38, 874.73, 0.032, 0.000, -1.040, 12:40:52.283, 1587811252283
96, 1121.50, 456.08, 605.78, 847.62, 0.032, 0.000, -1.040, 12:40:52.283, 1587811252283
97, 1146.84, 488.17, 607.27, 846.69, 0.032, 0.000, -1.040, 12:40:52.297, 1587811252297
98, 1133.51, 469.88, 605.16, 873.19, 0.032, 0.000, -1.040, 12:40:52.297, 1587811252297
99, 1104.65, 430.49, 592.72, 866.36, 0.032, 0.000, -1.040, 12:40:52.313, 1587811252313
100, 1116.38, 444.72, 602.55, 843.02, 0.032, 0.000, -1.040, 12:40:52.313, 1587811252313
101, 1150.91, 485.91, 611.60, 847.07, 0.032, 0.000, -1.040, 12:40:52.313, 1587811252313
102, 1138.72, 480.52, 608.95, 872.27, 0.032, 0.000, -1.040, 12:40:52.313, 1587811252313
103, 1101.19, 434.79, 599.98, 867.85, 0.032, 0.000, -1.040, 12:40:52.327, 1587811252327
104, 1118.53, 454.63, 608.66, 847.16, 0.032, 0.000, -1.040, 12:40:52.327, 1587811252327
105, 1149.90, 488.00, 609.29, 847.09, 0.032, 0.000, -1.040, 12:40:52.344, 1587811252344
106, 1139.18, 478.82, 605.91, 873.91, 0.032, 0.000, -1.024, 12:40:52.344, 1587811252344
107, 1099.53, 430.59, 594.16, 867.59, 0.032, 0.000, -1.024, 12:40:52.345, 1587811252345
108, 1117.31, 449.34, 603.97, 845.41, 0.032, 0.000, -1.024, 12:40:52.345, 1587811252345
109, 1149.81, 487.30, 608.13, 846.26, 0.032, 0.000, -1.024, 12:40:52.357, 1587811252357
110, 1139.99, 472.20, 600.81, 876.08, 0.032, 0.000, -1.024, 12:40:52.357, 1587811252357
111, 1099.97, 438.34, 595.13, 871.46, 0.032, 0.000, -1.024, 12:40:52.374, 1587811252374
112, 1118.24, 454.04, 608.05, 848.57, 0.032, 0.000, -1.024, 12:40:52.374, 1587811252374
113, 1153.07, 494.02, 615.73, 853.14, 0.032, 0.000, -1.024, 12:40:52.375, 1587811252375
114, 1138.03, 479.81, 603.77, 882.60, 0.032, 0.000, -1.024, 12:40:52.375, 1587811252375
115, 1107.01, 442.60, 601.45, 872.68, 0.032, 0.000, -1.024, 12:40:52.387, 1587811252387
116, 1119.91, 455.97, 605.75, 851.55, 0.032, 0.000, -1.024, 12:40:52.387, 1587811252387
117, 1150.70, 493.35, 616.76, 854.44, 0.032, 0.000, -1.024, 12:40:52.404, 1587811252404
118, 1132.37, 480.18, 604.63, 877.84, 0.032, 0.000, -1.024, 12:40:52.404, 1587811252404
119, 1094.77, 439.33, 595.74, 870.25, 0.032, 0.000, -1.024, 12:40:52.404, 1587811252404
120, 1115.42, 454.15, 605.54, 841.03, 0.032, 0.000, -1.024, 12:40:52.404, 1587811252404
121, 1145.96, 488.74, 608.38, 843.66, 0.032, 0.000, -1.024, 12:40:52.417, 1587811252417
122, 1128.84, 474.89, 598.79, 873.46, 0.032, 0.000, -1.024, 12:40:52.417, 1587811252417
123, 1097.96, 433.30, 595.90, 870.19, 0.032, 0.000, -1.024, 12:40:52.433, 1587811252433
124, 1116.61, 453.85, 605.84, 847.51, 0.032, 0.000, -1.024, 12:40:52.433, 1587811252433
125, 1150.09, 495.51, 611.41, 850.53, 0.032, 0.000, -1.024, 12:40:52.433, 1587811252433
126, 1140.15, 481.27, 602.91, 874.52, 0.032, 0.000, -1.024, 12:40:52.433, 1587811252433
127, 1106.82, 445.85, 600.14, 875.33, 0.032, 0.000, -1.024, 12:40:52.447, 1587811252447
128, 1117.35, 461.20, 609.68, 852.99, 0.032, 0.000, -1.024, 12:40:52.447, 1587811252447
129, 1155.83, 502.23, 618.53, 855.50, 0.032, 0.000, -1.024, 12:40:52.463, 1587811252463
130, 1137.58, 483.44, 610.33, 881.63, 0.032, 0.000, -1.024, 12:40:52.463, 1587811252463
131, 1106.33, 445.97, 608.23, 881.70, 0.032, 0.000, -1.024, 12:40:52.463, 1587811252463
132, 1123.43, 459.71, 614.16, 858.02, 0.032, 0.000, -1.024, 12:40:52.463, 1587811252463
133, 1159.17, 503.46, 619.43, 865.49, 0.032, 0.000, -1.024, 12:40:52.477, 1587811252477
134, 1142.40, 485.50, 610.22, 886.27, 0.032, 0.000, -1.024, 12:40:52.477, 1587811252477
135, 1103.71, 443.09, 604.18, 879.61, 0.032, 0.000, -1.024, 12:40:52.493, 1587811252493
136, 1118.07, 458.12, 604.81, 847.68, 0.032, 0.000, -1.024, 12:40:52.493, 1587811252493
137, 1153.26, 497.58, 614.93, 854.67, 0.032, 0.000, -1.024, 12:40:52.494, 1587811252494
138, 1138.61, 486.85, 609.05, 875.07, 0.032, 0.000, -1.024, 12:40:52.494, 1587811252494
139, 1099.25, 442.27, 599.08, 874.50, 0.032, 0.000, -1.024, 12:40:52.507, 1587811252507
140, 1117.28, 461.54, 607.59, 848.72, 0.032, 0.000, -1.024, 12:40:52.507, 1587811252507
141, 1156.19, 501.57, 615.98, 852.96, 0.032, 0.000, -1.024, 12:40:52.523, 1587811252523
142, 1139.16, 489.88, 616.75, 881.77, 0.032, 0.000, -1.024, 12:40:52.523, 1587811252523
143, 1105.38, 451.23, 607.31, 882.04, 0.032, 0.000, -1.024, 12:40:52.525, 1587811252525
144, 1126.79, 467.04, 614.24, 854.11, 0.032, 0.000, -1.024, 12:40:52.525, 1587811252525
145, 1166.18, 509.38, 622.15, 858.92, 0.032, 0.000, -1.024, 12:40:52.537, 1587811252537
146, 1145.57, 493.06, 613.06, 880.82, 0.032, 0.000, -1.040, 12:40:52.537, 1587811252537
147, 1108.12, 445.50, 603.86, 874.64, 0.032, 0.000, -1.040, 12:40:52.553, 1587811252553
148, 1122.25, 451.26, 607.83, 847.44, 0.032, 0.000, -1.040, 12:40:52.553, 1587811252553
149, 1154.62, 491.18, 612.66, 844.94, 0.032, 0.000, -1.040, 12:40:52.554, 1587811252554
150, 1143.82, 488.04, 618.47, 878.30, 0.032, 0.000, -1.040, 12:40:52.554, 1587811252554
151, 1108.15, 448.73, 606.12, 871.96, 0.032, 0.000, -1.040, 12:40:52.567, 1587811252567
152, 1129.32, 458.01, 613.02, 850.26, 0.032, 0.000, -1.040, 12:40:52.567, 1587811252567
153, 1167.45, 500.43, 624.72, 850.24, 0.032, 0.000, -1.040, 12:40:52.583, 1587811252583
154, 1150.53, 483.80, 624.34, 873.18, 0.032, 0.000, -1.040, 12:40:52.583, 1587811252583
155, 1110.95, 439.01, 599.05, 863.40, 0.032, 0.000, -1.040, 12:40:52.585, 1587811252585
156, 1128.51, 454.15, 612.47, 840.05, 0.032, 0.000, -1.040, 12:40:52.585, 1587811252585
157, 1154.95, 497.02, 619.45, 847.46, 0.032, 0.000, -1.040, 12:40:52.597, 1587811252597
158, 1143.93, 485.03, 610.83, 867.42, 0.032, 0.000, -1.040, 12:40:52.597, 1587811252597
159, 1102.24, 439.59, 602.81, 871.99, 0.032, 0.000, -1.040, 12:40:52.613, 1587811252613
160, 1119.90, 457.92, 613.88, 845.84, 0.032, 0.000, -1.040, 12:40:52.613, 1587811252613
161, 1156.28, 493.24, 618.14, 852.63, 0.032, 0.000, -1.040, 12:40:52.613, 1587811252613
162, 1137.09, 479.17, 607.58, 877.47, 0.032, 0.000, -1.040, 12:40:52.613, 1587811252613
163, 1108.39, 440.90, 604.89, 871.65, 0.032, 0.000, -1.040, 12:40:52.628, 1587811252628
164, 1123.15, 458.97, 614.72, 835.87, 0.032, 0.000, -1.040, 12:40:52.628, 1587811252628
165, 1157.98, 493.49, 612.72, 844.25, 0.032, 0.000, -1.040, 12:40:52.643, 1587811252643
166, 1144.82, 482.94, 612.32, 864.00, 0.032, 0.000, -1.024, 12:40:52.643, 1587811252643
167, 1109.06, 433.18, 600.97, 860.06, 0.032, 0.000, -1.024, 12:40:52.643, 1587811252643
168, 1126.71, 452.96, 611.11, 834.80, 0.032, 0.000, -1.024, 12:40:52.643, 1587811252643
169, 1163.71, 500.70, 625.63, 843.51, 0.032, 0.000, -1.024, 12:40:52.659, 1587811252659
170, 1149.70, 484.01, 617.74, 868.81, 0.032, 0.000, -1.024, 12:40:52.659, 1587811252659
171, 1115.53, 445.06, 616.73, 871.13, 0.032, 0.000, -1.024, 12:40:52.673, 1587811252673
172, 1127.41, 464.75, 617.05, 840.88, 0.032, 0.000, -1.024, 12:40:52.673, 1587811252673
173, 1161.59, 494.61, 618.62, 843.45, 0.032, 0.000, -1.024, 12:40:52.673, 1587811252673
174, 1145.94, 480.83, 606.35, 865.96, 0.032, 0.000, -1.024, 12:40:52.673, 1587811252673
175, 1110.90, 438.11, 598.12, 867.40, 0.032, 0.000, -1.024, 12:40:52.687, 1587811252687
176, 1127.50, 453.58, 608.41, 840.24, 0.032, 0.000, -1.024, 12:40:52.687, 1587811252687
177, 1162.21, 495.93, 621.54, 838.47, 0.032, 0.000, -1.024, 12:40:52.703, 1587811252703
178, 1146.38, 470.21, 612.48, 858.34, 0.032, 0.000, -1.024, 12:40:52.703, 1587811252703
179, 1109.58, 436.79, 599.64, 859.93, 0.032, 0.000, -1.024, 12:40:52.703, 1587811252703
180, 1124.55, 451.27, 609.52, 838.75, 0.032, 0.000, -1.024, 12:40:52.703, 1587811252703
181, 1158.72, 489.37, 614.45, 840.39, 0.032, 0.000, -1.024, 12:40:52.717, 1587811252717
182, 1143.03, 474.10, 613.91, 863.83, 0.032, 0.000, -1.024, 12:40:52.717, 1587811252717
183, 1111.02, 431.37, 596.69, 860.03, 0.032, 0.000, -1.024, 12:40:52.733, 1587811252733
184, 1126.71, 452.47, 607.79, 834.15, 0.032, 0.000, -1.024, 12:40:52.733, 1587811252733
185, 1165.63, 492.87, 617.69, 844.24, 0.032, 0.000, -1.024, 12:40:52.733, 1587811252733
186, 1148.41, 477.92, 609.79, 866.13, 0.032, 0.000, -1.024, 12:40:52.733, 1587811252733
187, 1117.77, 437.73, 609.07, 864.85, 0.032, 0.000, -1.024, 12:40:52.747, 1587811252747
188, 1129.84, 451.95, 613.24, 841.73, 0.032, 0.000, -1.024, 12:40:52.747, 1587811252747
189, 1167.07, 492.19, 629.12, 845.92, 0.032, 0.000, -1.024, 12:40:52.763, 1587811252763
190, 1151.81, 477.88, 611.73, 870.27, 0.032, 0.000, -1.024, 12:40:52.763, 1587811252763
191, 1113.32, 434.46, 603.09, 865.15, 0.032, 0.000, -1.024, 12:40:52.764, 1587811252764
192, 1130.57, 454.71, 612.58, 838.76, 0.032, 0.000, -1.024, 12:40:52.764, 1587811252764
193, 1168.69, 505.58, 629.02, 843.86, 0.032, 0.000, -1.024, 12:40:52.794, 1587811252794
194, 1151.25, 482.91, 616.82, 870.06, 0.032, 0.000, -1.024, 12:40:52.794, 1587811252794
195, 1111.89, 444.32, 602.51, 867.43, 0.032, 0.000, -1.024, 12:40:52.795, 1587811252795
196, 1131.48, 453.06, 618.15, 843.52, 0.032, 0.000, -1.024, 12:40:52.795, 1587811252795
197, 1167.99, 492.09, 625.03, 849.79, 0.032, 0.000, -1.024, 12:40:52.796, 1587811252796
198, 1149.39, 475.11, 612.11, 869.69, 0.032, 0.000, -1.024, 12:40:52.796, 1587811252796
199, 1114.22, 432.31, 603.05, 866.99, 0.032, 0.000, -1.024, 12:40:52.808, 1587811252808
200, 1132.01, 451.71, 612.15, 840.25, 0.032, 0.000, -1.024, 12:40:52.808, 1587811252808
0, 1162.13, 494.47, 626.94, 849.08, 0.032, 0.000, -1.024, 12:40:52.808, 1587811252808
1, 1146.63, 474.60, 607.46, 868.31, 0.032, 0.000, -1.024, 12:40:52.822, 1587811252822
2, 1120.60, 432.76, 605.53, 866.14, 0.032, 0.000, -1.024, 12:40:52.822, 1587811252822
3, 1134.21, 453.42, 614.42, 840.86, 0.032, 0.000, -1.024, 12:40:52.838, 1587811252838
4, 1172.40, 493.24, 621.96, 840.91, 0.032, 0.000, -1.024, 12:40:52.838, 1587811252838
5, 1150.57, 475.26, 608.85, 858.88, 0.032, 0.000, -1.024, 12:40:52.853, 1587811252853
6, 1114.24, 433.25, 600.96, 863.16, 0.032, 0.000, -1.024, 12:40:52.853, 1587811252853
7, 1134.41, 448.19, 613.26, 839.00, 0.032, 0.000, -1.024, 12:40:52.853, 1587811252853
8, 1166.47, 487.84, 620.28, 843.34, 0.032, 0.000, -1.024, 12:40:52.853, 1587811252853
9, 1154.37, 474.49, 613.60, 869.47, 0.032, 0.000, -1.024, 12:40:52.869, 1587811252869
10, 1121.92, 441.25, 615.92, 866.23, 0.032, 0.000, -1.024, 12:40:52.869, 1587811252869
11, 1140.58, 454.92, 616.59, 843.26, 0.032, 0.000, -1.024, 12:40:52.869, 1587811252869
12, 1168.66, 497.02, 620.88, 852.13, 0.032, 0.000, -1.024, 12:40:52.869, 1587811252869
13, 1160.31, 480.99, 612.30, 877.12, 0.032, 0.000, -1.024, 12:40:52.882, 1587811252882
14, 1120.12, 443.29, 607.45, 871.22, 0.032, 0.000, -1.024, 12:40:52.882, 1587811252882
15, 1134.93, 454.60, 617.28, 846.70, 0.032, 0.000, -1.024, 12:40:52.898, 1587811252898
16, 1174.20, 495.79, 625.61, 851.77, 0.032, 0.000, -1.024, 12:40:52.898, 1587811252898
17, 1153.70, 478.46, 619.40, 872.85, 0.032, 0.000, -1.024, 12:40:52.898, 1587811252898
18, 1120.13, 437.74, 609.26, 866.12, 0.032, 0.000, -1.024, 12:40:52.898, 1587811252898
19, 1136.73, 450.78, 616.10, 845.47, 0.032, 0.000, -1.024, 12:40:52.913, 1587811252913
20, 1173.17, 496.93, 626.33, 851.40, 0.032, 0.000, -1.024, 12:40:52.913, 1587811252913
21, 1153.43, 480.89, 614.90, 873.80, 0.032, 0.000, -1.024, 12:40:52.928, 1587811252928
22, 1115.45, 434.49, 600.35, 867.31, 0.032, 0.000, -1.024, 12:40:52.928, 1587811252928
23, 1133.53, 450.39, 611.99, 838.75, 0.032, 0.000, -1.024, 12:40:52.928, 1587811252928
24, 1167.56, 490.02, 624.66, 848.83, 0.032, 0.000, -1.024, 12:40:52.928, 1587811252928
25, 1156.27, 475.78, 613.35, 868.26, 0.032, 0.000, -1.024, 12:40:52.942, 1587811252942
26, 1118.43, 437.24, 605.52, 863.54, 0.032, 0.000, -1.024, 12:40:52.942, 1587811252942
27, 1141.32, 454.43, 616.13, 842.07, 0.032, 0.000, -1.024, 12:40:52.959, 1587811252959
28, 1169.50, 487.77, 613.84, 844.74, 0.032, 0.000, -1.024, 12:40:52.959, 1587811252959
29, 1145.83, 466.50, 605.07, 869.81, 0.032, 0.000, -1.024, 12:40:52.959, 1587811252959
30, 1111.96, 426.33, 595.83, 862.44, 0.032, 0.000, -1.024, 12:40:52.959, 1587811252959
31, 1130.26, 435.34, 597.32, 834.46, 0.032, 0.000, -1.024, 12:40:52.972, 1587811252972
32, 1161.94, 472.36, 607.97, 837.60, 0.032, 0.000, -1.024, 12:40:52.972, 1587811252972
33, 1144.20, 461.02, 603.02, 859.48, 0.032, 0.000, -1.024, 12:40:52.988, 1587811252988
34, 1112.35, 423.70, 598.88, 854.48, 0.032, 0.000, -1.024, 12:40:52.988, 1587811252988
35, 1131.65, 437.96, 603.02, 825.39, 0.032, 0.000, -1.024, 12:40:52.988, 1587811252988
36, 1163.88, 473.98, 610.35, 835.82, 0.032, 0.000, -1.024, 12:40:52.988, 1587811252988
37, 1145.69, 464.74, 603.23, 861.20, 0.032, 0.000, -1.024, 12:40:53.002, 1587811253002
38, 1111.50, 427.09, 595.69, 861.87, 0.032, 0.000, -1.024, 12:40:53.002, 1587811253002
39, 1128.65, 436.28, 603.87, 840.25, 0.032, 0.000, -1.024, 12:40:53.019, 1587811253019
40, 1160.04, 479.78, 611.74, 840.75, 0.032, 0.000, -1.024, 12:40:53.019, 1587811253019
41, 1138.68, 461.13, 596.38, 861.92, 0.032, 0.000, -1.024, 12:40:53.019, 1587811253019
42, 1106.23, 416.85, 589.23, 857.50, 0.032, 0.000, -1.024, 12:40:53.019, 1587811253019
43, 1122.81, 436.60, 601.14, 833.15, 0.032, 0.000, -1.024, 12:40:53.032, 1587811253032
44, 1159.19, 476.75, 609.77, 839.41, 0.032, 0.000, -1.024, 12:40:53.032, 1587811253032
45, 1148.20, 461.31, 602.09, 867.24, 0.032, 0.000, -1.024, 12:40:53.048, 1587811253048
46, 1111.62, 421.39, 591.15, 859.10, 0.032, 0.000, -1.040, 12:40:53.048, 1587811253048
47, 1133.21, 443.90, 610.58, 836.08, 0.032, 0.000, -1.040, 12:40:53.049, 1587811253049
48, 1163.93, 483.70, 614.40, 839.02, 0.032, 0.000, -1.040, 12:40:53.049, 1587811253049
49, 1138.91, 459.17, 598.50, 864.01, 0.032, 0.000, -1.040, 12:40:53.062, 1587811253062
50, 1115.60, 421.09, 594.28, 859.44, 0.032, 0.000, -1.040, 12:40:53.062, 1587811253062
51, 1132.96, 439.35, 609.17, 841.08, 0.032, 0.000, -1.040, 12:40:53.078, 1587811253078
52, 1162.38, 479.95, 612.08, 841.88, 0.032, 0.000, -1.040, 12:40:53.078, 1587811253078
53, 1147.13, 467.28, 610.16, 868.00, 0.032, 0.000, -1.040, 12:40:53.078, 1587811253078
54, 1109.22, 423.04, 596.51, 862.20, 0.032, 0.000, -1.040, 12:40:53.078, 1587811253078
55, 1127.66, 440.17, 607.33, 833.76, 0.032, 0.000, -1.040, 12:40:53.093, 1587811253093
56, 1161.06, 479.37, 614.98, 842.37, 0.032, 0.000, -1.040, 12:40:53.093, 1587811253093
57, 1147.09, 465.22, 608.91, 865.87, 0.032, 0.000, -1.040, 12:40:53.108, 1587811253108
58, 1106.24, 422.91, 593.31, 858.63, 0.032, 0.000, -1.040, 12:40:53.108, 1587811253108
59, 1130.23, 445.29, 614.22, 839.86, 0.032, 0.000, -1.040, 12:40:53.108, 1587811253108
60, 1161.75, 484.07, 619.87, 847.14, 0.032, 0.000, -1.040, 12:40:53.108, 1587811253108
61, 1148.99, 465.92, 609.72, 866.63, 0.032, 0.000, -1.040, 12:40:53.123, 1587811253123
62, 1117.16, 424.76, 597.77, 859.50, 0.032, 0.000, -1.040, 12:40:53.123, 1587811253123
63, 1137.28, 451.69, 613.68, 837.15, 0.032, 0.000, -1.040, 12:40:53.138, 1587811253138
64, 1173.93, 487.52, 619.85, 835.49, 0.032, 0.000, -1.040, 12:40:53.138, 1587811253138
65, 1147.90, 464.02, 606.39, 863.65, 0.032, 0.000, -1.040, 12:40:53.138, 1587811253138
66, 1113.45, 427.34, 601.22, 858.28, 0.032, 0.000, -1.040, 12:40:53.138, 1587811253138
67, 1132.25, 450.41, 609.52, 835.26, 0.032, 0.000, -1.040, 12:40:53.168, 1587811253168
68, 1170.79, 492.65, 617.35, 841.40, 0.032, 0.000, -1.040, 12:40:53.168, 1587811253168
69, 1147.83, 466.00, 603.40, 863.79, 0.032, 0.000, -1.040, 12:40:53.169, 1587811253169
70, 1117.06, 427.77, 596.74, 859.00, 0.032, 0.000, -1.040, 12:40:53.169, 1587811253169
71, 1133.84, 446.24, 609.70, 831.12, 0.032, 0.000, -1.040, 12:40:53.170, 1587811253170
72, 1165.24, 480.02, 617.64, 842.53, 0.032, 0.000, -1.040, 12:40:53.170, 1587811253170
73, 1149.79, 466.34, 606.77, 867.04, 0.032, 0.000, -1.040, 12:40:53.182, 1587811253182
74, 1115.51, 430.25, 602.31, 861.57, 0.032, 0.000, -1.040, 12:40:53.182, 1587811253182
75, 1137.40, 444.60, 613.47, 836.73, 0.032, 0.000, -1.040, 12:40:53.198, 1587811253198
76, 1169.07, 486.01, 618.03, 846.91, 0.032, 0.000, -1.040, 12:40:53.198, 1587811253198
77, 1151.93, 466.55, 609.52, 869.58, 0.032, 0.000, -1.040, 12:40:53.199, 1587811253199
78, 1115.17, 427.28, 603.55, 867.52, 0.032, 0.000, -1.040, 12:40:53.199, 1587811253199
79, 1130.88, 444.78, 612.34, 838.66, 0.032, 0.000, -1.040, 12:40:53.229, 1587811253229
80, 1165.33, 483.08, 613.32, 837.17, 0.032, 0.000, -1.040, 12:40:53.229, 1587811253229
81, 1146.59, 466.27, 605.24, 863.49, 0.032, 0.000, -1.040, 12:40:53.230, 1587811253230
82, 1116.34, 425.08, 597.39, 863.51, 0.032, 0.000, -1.040, 12:40:53.230, 1587811253230
83, 1131.23, 445.03, 608.56, 845.07, 0.032, 0.000, -1.040, 12:40:53.230, 1587811253230
84, 1168.29, 483.58, 617.25, 844.15, 0.032, 0.000, -1.040, 12:40:53.230, 1587811253230
85, 1149.70, 463.41, 609.39, 870.98, 0.032, 0.000, -1.040, 12:40:53.242, 1587811253242
86, 1119.29, 433.83, 607.57, 861.48, 0.032, 0.000, -1.040, 12:40:53.242, 1587811253242
87, 1140.70, 445.42, 614.62, 833.33, 0.032, 0.000, -1.040, 12:40:53.258, 1587811253258
88, 1169.30, 485.46, 621.82, 839.44, 0.032, 0.000, -1.040, 12:40:53.258, 1587811253258
89, 1151.69, 464.74, 608.31, 867.25, 0.032, 0.000, -1.040, 12:40:53.258, 1587811253258
90, 1119.36, 427.67, 605.54, 859.80, 0.032, 0.000, -1.040, 12:40:53.258, 1587811253258
91, 1133.18, 441.06, 612.65, 838.96, 0.032, 0.000, -1.040, 12:40:53.289, 1587811253289
92, 1165.50, 485.87, 622.84, 845.89, 0.032, 0.000, -1.040, 12:40:53.289, 1587811253289
93, 1153.72, 468.01, 611.68, 873.45, 0.032, 0.000, -1.040, 12:40:53.290, 1587811253290
94, 1116.01, 429.52, 601.52, 870.23, 0.032, 0.000, -1.040, 12:40:53.290, 1587811253290
95, 1133.31, 441.11, 610.72, 839.39, 0.032, 0.000, -1.040, 12:40:53.290, 1587811253290
96, 1164.33, 478.23, 613.52, 842.14, 0.032, 0.000, -1.040, 12:40:53.290, 1587811253290
97, 1150.21, 467.71, 612.27, 872.08, 0.032, 0.000, -1.040, 12:40:53.303, 1587811253303
98, 1120.17, 430.00, 610.45, 865.26, 0.032, 0.000, -1.040, 12:40:53.303, 1587811253303
99, 1134.31, 445.84, 612.74, 837.43, 0.032, 0.000, -1.040, 12:40:53.318, 1587811253318
100, 1170.21, 483.05, 621.25, 842.13, 0.032, 0.000, -1.040, 12:40:53.318, 1587811253318
101, 1150.49, 470.70, 610.03, 871.73, 0.032, 0.000, -1.040, 12:40:53.318, 1587811253318
102, 1117.99, 429.89, 606.46, 868.69, 0.032, 0.000, -1.040, 12:40:53.318, 1587811253318
103, 1130.63, 447.93, 615.73, 840.23, 0.032, 0.000, -1.040, 12:40:53.349, 1587811253349
104, 1166.89, 488.63, 618.76, 842.57, 0.032, 0.000, -1.040, 12:40:53.349, 1587811253349
105, 1151.21, 470.34, 607.93, 864.12, 0.032, 0.000, -1.040, 12:40:53.349, 1587811253349
106, 1119.91, 431.09, 604.71, 862.22, 0.032, 0.000, -1.024, 12:40:53.349, 1587811253349
107, 1134.88, 444.14, 614.08, 835.42, 0.032, 0.000, -1.024, 12:40:53.350, 1587811253350
108, 1159.63, 483.21, 616.87, 847.92, 0.032, 0.000, -1.024, 12:40:53.350, 1587811253350
109, 1146.15, 469.13, 610.40, 871.05, 0.032, 0.000, -1.024, 12:40:53.362, 1587811253362
110, 1112.98, 429.74, 603.42, 864.50, 0.032, 0.000, -1.024, 12:40:53.362, 1587811253362
111, 1135.11, 450.02, 613.26, 839.26, 0.032, 0.000, -1.024, 12:40:53.379, 1587811253379
112, 1167.85, 494.78, 622.92, 850.06, 0.032, 0.000, -1.024, 12:40:53.379, 1587811253379
113, 1152.14, 474.12, 612.44, 873.29, 0.032, 0.000, -1.024, 12:40:53.380, 1587811253380
114, 1116.89, 435.44, 604.83, 870.30, 0.032, 0.000, -1.024, 12:40:53.380, 1587811253380
115, 1142.11, 449.92, 614.18, 843.31, 0.032, 0.000, -1.024, 12:40:53.392, 1587811253392
116, 1168.59, 489.86, 621.87, 849.45, 0.032, 0.000, -1.024, 12:40:53.392, 1587811253392
117, 1149.28, 480.50, 616.37, 870.87, 0.032, 0.000, -1.024, 12:40:53.409, 1587811253409
118, 1123.25, 440.98, 611.80, 870.17, 0.032, 0.000, -1.024, 12:40:53.409, 1587811253409
119, 1138.75, 454.58, 620.96, 840.68, 0.032, 0.000, -1.024, 12:40:53.409, 1587811253409
120, 1166.35, 494.05, 622.34, 849.02, 0.032, 0.000, -1.024, 12:40:53.409, 1587811253409
121, 1154.01, 479.11, 615.71, 875.14, 0.032, 0.000, -1.024, 12:40:53.422, 1587811253422
122, 1115.54, 437.54, 605.06, 865.36, 0.032, 0.000, -1.024, 12:40:53.422, 1587811253422
123, 1137.35, 454.94, 618.00, 847.44, 0.032, 0.000, -1.024, 12:40:53.438, 1587811253438
124, 1172.27, 497.22, 624.07, 848.44, 0.032, 0.000, -1.024, 12:40:53.438, 1587811253438
125, 1155.15, 475.68, 608.81, 874.82, 0.032, 0.000, -1.024, 12:40:53.438, 1587811253438
126, 1119.82, 435.40, 600.60, 868.64, 0.032, 0.000, -1.024, 12:40:53.438, 1587811253438
127, 1140.09, 453.89, 616.68, 846.17, 0.032, 0.000, -1.024, 12:40:53.452, 1587811253452
128, 1173.47, 493.18, 621.50, 845.87, 0.032, 0.000, -1.024, 12:40:53.452, 1587811253452
129, 1160.23, 482.39, 616.67, 874.82, 0.032, 0.000, -1.024, 12:40:53.468, 1587811253468
130, 1124.63, 436.68, 605.80, 864.32, 0.032, 0.000, -1.024, 12:40:53.468, 1587811253468
131, 1136.94, 458.55, 617.84, 844.79, 0.032, 0.000, -1.024, 12:40:53.469, 1587811253469
132, 1165.72, 492.83, 617.68, 846.57, 0.032, 0.000, -1.024, 12:40:53.469, 1587811253469
133, 1146.06, 473.00, 606.91, 871.42, 0.032, 0.000, -1.024, 12:40:53.483, 1587811253483
134, 1115.85, 434.27, 601.72, 865.48, 0.032, 0.000, -1.024, 12:40:53.483, 1587811253483
135, 1136.08, 453.78, 612.15, 840.67, 0.032, 0.000, -1.024, 12:40:53.498, 1587811253498
136, 1168.04, 487.04, 613.77, 844.21, 0.032, 0.000, -1.024, 12:40:53.498, 1587811253498
137, 1143.50, 470.35, 605.05, 868.02, 0.032, 0.000, -1.024, 12:40:53.499, 1587811253499
138, 1108.29, 426.92, 597.92, 859.16, 0.032, 0.000, -1.024, 12:40:53.499, 1587811253499
139, 1128.58, 446.80, 606.63, 836.35, 0.032, 0.000, -1.024, 12:40:53.514, 1587811253514
140, 1160.66, 480.13, 612.60, 838.00, 0.032, 0.000, -1.024, 12:40:53.514, 1587811253514
141, 1145.83, 472.61, 604.21, 864.57, 0.032, 0.000, -1.024, 12:40:53.528, 1587811253528
142, 1111.77, 430.05, 596.99, 854.64, 0.032, 0.000, -1.024, 12:40:53.528, 1587811253528
143, 1135.27, 451.27, 606.01, 840.01, 0.032, 0.000, -1.024, 12:40:53.528, 1587811253528
144, 1168.62, 488.49, 615.36, 844.56, 0.032, 0.000, -1.024, 12:40:53.528, 1587811253528
145, 1148.11, 466.75, 600.61, 864.37, 0.032, 0.000, -1.024, 12:40:53.542, 1587811253542
146, 1113.21, 433.01, 598.08, 855.77, 0.032, 0.000, -1.024, 12:40:53.542, 1587811253542
147, 1133.51, 444.42, 608.99, 837.69, 0.032, 0.000, -1.024, 12:40:53.559, 1587811253559
148, 1163.01, 483.92, 610.37, 840.71, 0.032, 0.000, -1.024, 12:40:53.559, 1587811253559
149, 1149.08, 467.02, 600.42, 868.14, 0.032, 0.000, -1.024, 12:40:53.559, 1587811253559
150, 1116.12, 427.42, 596.00, 864.63, 0.032, 0.000, -1.024, 12:40:53.559, 1587811253559
151, 1135.21, 448.41, 613.18, 838.45, 0.032, 0.000, -1.024, 12:40:53.572, 1587811253572
152, 1168.71, 487.67, 610.82, 839.61, 0.032, 0.000, -1.024, 12:40:53.572, 1587811253572
153, 1152.23, 478.19, 609.88, 867.52, 0.032, 0.000, -1.024, 12:40:53.589, 1587811253589
154, 1117.75, 433.82, 605.38, 862.70, 0.032, 0.000, -1.024, 12:40:53.589, 1587811253589
155, 1138.90, 452.39, 617.09, 833.06, 0.032, 0.000, -1.024, 12:40:53.589, 1587811253589
156, 1159.33, 485.19, 612.61, 838.13, 0.032, 0.000, -1.024, 12:40:53.589, 1587811253589
157, 1148.58, 473.30, 605.63, 864.95, 0.032, 0.000, -1.024, 12:40:53.603, 1587811253603
158, 1115.69, 432.62, 600.49, 859.90, 0.032, 0.000, -1.024, 12:40:53.603, 1587811253603
159, 1131.26, 450.48, 614.14, 833.81, 0.032, 0.000, -1.024, 12:40:53.619, 1587811253619
160, 1166.95, 492.87, 623.27, 838.71, 0.032, 0.000, -1.024, 12:40:53.619, 1587811253619
161, 1148.57, 472.97, 613.71, 866.22, 0.032, 0.000, -1.024, 12:40:53.619, 1587811253619
162, 1114.02, 439.42, 602.33, 858.00, 0.032, 0.000, -1.024, 12:40:53.619, 1587811253619
163, 1135.37, 449.85, 613.50, 837.46, 0.032, 0.000, -1.024, 12:40:53.632, 1587811253632
164, 1161.32, 488.48, 617.23, 841.72, 0.032, 0.000, -1.024, 12:40:53.632, 1587811253632
165, 1144.95, 464.96, 597.85, 864.06, 0.032, 0.000, -1.024, 12:40:53.648, 1587811253648
166, 1109.47, 423.32, 592.16, 853.91, 0.032, 0.000, -1.024, 12:40:53.648, 1587811253648
167, 1130.93, 436.55, 598.94, 829.31, 0.032, 0.000, -1.024, 12:40:53.648, 1587811253648
168, 1161.76, 479.60, 611.78, 834.77, 0.032, 0.000, -1.024, 12:40:53.648, 1587811253648
169, 1146.11, 465.35, 600.83, 859.57, 0.032, 0.000, -1.024, 12:40:53.663, 1587811253663
170, 1115.56, 431.88, 597.36, 857.49, 0.032, 0.000, -1.024, 12:40:53.663, 1587811253663
171, 1133.28, 448.35, 613.98, 834.73, 0.032, 0.000, -1.024, 12:40:53.678, 1587811253678
172, 1163.32, 486.89, 618.91, 840.26, 0.032, 0.000, -1.024, 12:40:53.678, 1587811253678
173, 1145.05, 470.48, 611.74, 870.34, 0.032, 0.000, -1.024, 12:40:53.678, 1587811253678
174, 1117.40, 432.21, 600.28, 860.30, 0.032, 0.000, -1.024, 12:40:53.678, 1587811253678
175, 1134.47, 444.95, 604.04, 833.80, 0.032, 0.000, -1.024, 12:40:53.693, 1587811253693
176, 1168.65, 486.54, 612.81, 840.62, 0.032, 0.000, -1.024, 12:40:53.693, 1587811253693
177, 1148.35, 466.29, 600.50, 864.60, 0.032, 0.000, -1.024, 12:40:53.709, 1587811253709
178, 1118.28, 428.36, 591.06, 855.45, 0.032, 0.000, -1.024, 12:40:53.709, 1587811253709
179, 1133.37, 445.84, 602.70, 833.68, 0.032, 0.000, -1.024, 12:40:53.709, 1587811253709
180, 1168.72, 481.69, 609.45, 838.53, 0.032, 0.000, -1.024, 12:40:53.709, 1587811253709
181, 1140.27, 460.13, 594.65, 865.62, 0.032, 0.000, -1.024, 12:40:53.722, 1587811253722
182, 1102.90, 424.22, 592.31, 863.40, 0.032, 0.000, -1.024, 12:40:53.722, 1587811253722
183, 1125.75, 444.10, 601.03, 837.98, 0.032, 0.000, -1.024, 12:40:53.738, 1587811253738
184, 1157.75, 475.65, 604.72, 840.67, 0.032, 0.000, -1.024, 12:40:53.738, 1587811253738
185, 1138.05, 457.78, 588.25, 863.58, 0.032, 0.000, -1.024, 12:40:53.738, 1587811253738
186, 1109.78, 426.17, 587.53, 857.30, 0.032, 0.000, -1.024, 12:40:53.738, 1587811253738
187, 1134.77, 452.13, 606.24, 839.37, 0.032, 0.000, -1.024, 12:40:53.752, 1587811253752
188, 1164.23, 493.94, 616.94, 843.24, 0.032, 0.000, -1.024, 12:40:53.752, 1587811253752
189, 1148.77, 476.51, 607.98, 867.56, 0.032, 0.000, -1.024, 12:40:53.769, 1587811253769
190, 1115.63, 425.88, 595.72, 858.05, 0.032, 0.000, -1.024, 12:40:53.769, 1587811253769
191, 1130.58, 447.58, 608.36, 831.74, 0.032, 0.000, -1.024, 12:40:53.783, 1587811253783
192, 1153.23, 476.99, 599.64, 841.04, 0.032, 0.000, -1.024, 12:40:53.783, 1587811253783
193, 1140.18, 458.39, 590.70, 864.02, 0.032, 0.000, -1.024, 12:40:53.784, 1587811253784
194, 1108.78, 425.19, 590.38, 855.26, 0.032, 0.000, -1.024, 12:40:53.784, 1587811253784
195, 1129.02, 445.67, 597.55, 838.84, 0.032, 0.000, -1.024, 12:40:53.799, 1587811253799
196, 1164.52, 487.48, 610.42, 844.88, 0.032, 0.000, -1.024, 12:40:53.799, 1587811253799
197, 1142.37, 465.15, 600.21, 872.22, 0.032, 0.000, -1.024, 12:40:53.799, 1587811253799
198, 1105.65, 423.58, 590.39, 861.00, 0.032, 0.000, -1.024, 12:40:53.799, 1587811253799
199, 1128.35, 444.51, 599.23, 836.21, 0.032, 0.000, -1.024, 12:40:53.813, 1587811253813
200, 1161.70, 484.19, 611.08, 838.31, 0.032, 0.000, -1.024, 12:40:53.813, 1587811253813
0, 1141.04, 466.09, 594.24, 862.75, 0.032, 0.000, -1.024, 12:40:53.813, 1587811253813
1, 1108.82, 430.43, 594.09, 854.70, 0.032, 0.000, -1.024, 12:40:53.845, 1587811253845
2, 1128.03, 445.35, 602.32, 830.29, 0.032, 0.000, -1.024, 12:40:53.845, 1587811253845
3, 1160.01, 489.82, 615.76, 840.72, 0.032, 0.000, -1.024, 12:40:53.845, 1587811253845
4, 1143.70, 470.47, 600.74, 861.80, 0.032, 0.000, -1.024, 12:40:53.845, 1587811253845
5, 1105.55, 428.47, 593.91, 861.59, 0.032, 0.000, -1.024, 12:40:53.845, 1587811253845
6, 1123.42, 448.20, 608.91, 842.40, 0.032, 0.000, -1.024, 12:40:53.845, 1587811253845
7, 1153.99, 485.50, 611.35, 846.18, 0.032, 0.000, -1.024, 12:40:53.857, 1587811253857
8, 1139.87, 462.76, 596.42, 869.35, 0.032, 0.000, -1.024, 12:40:53.857, 1587811253857
9, 1106.10, 429.58, 596.66, 866.79, 0.032, 0.000, -1.024, 12:40:53.873, 1587811253873
10, 1124.87, 446.38, 601.85, 835.62, 0.032, 0.000, -1.024, 12:40:53.873, 1587811253873
11, 1159.93, 487.93, 612.01, 846.13, 0.032, 0.000, -1.024, 12:40:53.874, 1587811253874
12, 1144.64, 469.53, 604.97, 869.40, 0.032, 0.000, -1.024, 12:40:53.874, 1587811253874
13, 1114.66, 432.25, 595.39, 864.19, 0.032, 0.000, -1.024, 12:40:53.904, 1587811253904
14, 1132.64, 452.48, 609.97, 835.85, 0.032, 0.000, -1.024, 12:40:53.904, 1587811253904
15, 1163.74, 494.73, 615.96, 845.14, 0.032, 0.000, -1.024, 12:40:53.904, 1587811253904
16, 1144.11, 473.36, 603.14, 876.57, 0.032, 0.000, -1.024, 12:40:53.904, 1587811253904
17, 1108.91, 433.66, 596.81, 866.33, 0.032, 0.000, -1.024, 12:40:53.905, 1587811253905
18, 1132.24, 450.05, 604.86, 833.52, 0.032, 0.000, -1.024, 12:40:53.905, 1587811253905
19, 1165.60, 495.11, 616.91, 851.90, 0.032, 0.000, -1.024, 12:40:53.917, 1587811253917
20, 1151.18, 474.50, 607.94, 870.89, 0.032, 0.000, -1.024, 12:40:53.917, 1587811253917
21, 1114.89, 434.76, 600.12, 859.95, 0.032, 0.000, -1.024, 12:40:53.933, 1587811253933
22, 1134.46, 448.50, 605.34, 837.38, 0.032, 0.000, -1.024, 12:40:53.933, 1587811253933
23, 1159.96, 487.93, 612.08, 840.32, 0.032, 0.000, -1.024, 12:40:53.933, 1587811253933
24, 1144.40, 470.00, 597.90, 859.21, 0.032, 0.000, -1.024, 12:40:53.933, 1587811253933
25, 1115.31, 433.45, 595.52, 863.99, 0.032, 0.000, -1.024, 12:40:53.948, 1587811253948
26, 1128.79, 449.12, 603.84, 833.76, 0.032, 0.000, -1.040, 12:40:53.948, 1587811253948
27, 1159.28, 491.93, 610.32, 836.50, 0.032, 0.000, -1.040, 12:40:53.963, 1587811253963
28, 1140.78, 465.57, 598.70, 859.25, 0.032, 0.000, -1.040, 12:40:53.963, 1587811253963
29, 1106.41, 428.76, 593.52, 855.76, 0.032, 0.000, -1.040, 12:40:53.963, 1587811253963
30, 1130.34, 444.52, 600.53, 828.99, 0.032, 0.000, -1.040, 12:40:53.963, 1587811253963
31, 1158.47, 483.62, 610.80, 832.58, 0.032, 0.000, -1.040, 12:40:53.978, 1587811253978
32, 1136.07, 465.51, 591.71, 855.49, 0.032, 0.000, -1.040, 12:40:53.978, 1587811253978
33, 1104.18, 432.70, 591.31, 856.46, 0.032, 0.000, -1.040, 12:40:53.993, 1587811253993
34, 1129.69, 446.17, 606.56, 831.11, 0.032, 0.000, -1.040, 12:40:53.993, 1587811253993
35, 1156.10, 483.09, 608.92, 836.24, 0.032, 0.000, -1.040, 12:40:53.993, 1587811253993
36, 1133.36, 471.12, 597.66, 860.46, 0.032, 0.000, -1.040, 12:40:53.993, 1587811253993
37, 1116.04, 431.60, 598.68, 857.39, 0.032, 0.000, -1.040, 12:40:54.007, 1587811254007
38, 1126.22, 453.14, 602.67, 837.55, 0.032, 0.000, -1.040, 12:40:54.007, 1587811254007
39, 1165.52, 499.40, 614.88, 843.79, 0.032, 0.000, -1.040, 12:40:54.023, 1587811254023
40, 1143.51, 470.36, 603.92, 870.20, 0.032, 0.000, -1.040, 12:40:54.023, 1587811254023
41, 1115.09, 439.47, 603.76, 859.25, 0.032, 0.000, -1.040, 12:40:54.024, 1587811254024
42, 1137.40, 460.29, 621.25, 837.46, 0.032, 0.000, -1.040, 12:40:54.024, 1587811254024
43, 1169.75, 495.79, 620.57, 844.52, 0.032, 0.000, -1.040, 12:40:54.037, 1587811254037
44, 1153.76, 475.70, 610.72, 866.58, 0.032, 0.000, -1.040, 12:40:54.037, 1587811254037
45, 1109.98, 434.41, 597.63, 862.40, 0.032, 0.000, -1.040, 12:40:54.053, 1587811254053
46, 1138.95, 458.09, 617.15, 838.93, 0.032, 0.000, -1.024, 12:40:54.053, 1587811254053
47, 1165.26, 500.60, 626.59, 847.91, 0.032, 0.000, -1.024, 12:40:54.054, 1587811254054
48, 1140.21, 477.01, 609.95, 867.71, 0.032, 0.000, -1.024, 12:40:54.054, 1587811254054
49, 1112.58, 436.80, 602.09, 856.81, 0.032, 0.000, -1.024, 12:40:54.067, 1587811254067
50, 1136.17, 452.00, 609.17, 840.46, 0.032, 0.000, -1.024, 12:40:54.067, 1587811254067
51, 1167.87, 491.76, 616.29, 842.98, 0.032, 0.000, -1.024, 12:40:54.083, 1587811254083
52, 1138.59, 474.64, 603.24, 866.89, 0.032, 0.000, -1.024, 12:40:54.083, 1587811254083
53, 1103.78, 431.00, 596.74, 858.34, 0.032, 0.000, -1.024, 12:40:54.084, 1587811254084
54, 1132.25, 458.16, 612.88, 839.53, 0.032, 0.000, -1.024, 12:40:54.084, 1587811254084
55, 1165.84, 494.86, 619.49, 844.43, 0.032, 0.000, -1.024, 12:40:54.097, 1587811254097
56, 1146.29, 485.63, 611.36, 871.22, 0.032, 0.000, -1.024, 12:40:54.097, 1587811254097
57, 1115.74, 439.30, 600.87, 859.27, 0.032, 0.000, -1.024, 12:40:54.113, 1587811254113
58, 1134.47, 454.22, 611.05, 835.73, 0.032, 0.000, -1.024, 12:40:54.113, 1587811254113
59, 1163.97, 496.49, 620.77, 842.69, 0.032, 0.000, -1.024, 12:40:54.114, 1587811254114
60, 1145.81, 476.29, 604.25, 874.41, 0.032, 0.000, -1.024, 12:40:54.114, 1587811254114
61, 1110.90, 437.31, 594.26, 863.50, 0.032, 0.000, -1.024, 12:40:54.128, 1587811254128
62, 1126.05, 453.61, 606.35, 839.54, 0.032, 0.000, -1.024, 12:40:54.128, 1587811254128
63, 1156.03, 490.57, 608.17, 841.95, 0.032, 0.000, -1.024, 12:40:54.143, 1587811254143
64, 1140.29, 474.22, 598.36, 868.02, 0.032, 0.000, -1.024, 12:40:54.143, 1587811254143
65, 1105.05, 435.49, 594.55, 858.64, 0.032, 0.000, -1.024, 12:40:54.143, 1587811254143
66, 1129.42, 455.53, 607.64, 837.53, 0.032, 0.000, -1.040, 12:40:54.143, 1587811254143
67, 1166.44, 498.86, 621.86, 849.36, 0.032, 0.000, -1.040, 12:40:54.157, 1587811254157
68, 1146.73, 475.29, 604.04, 868.27, 0.032, 0.000, -1.040, 12:40:54.157, 1587811254157
69, 1112.07, 437.49, 596.65, 864.62, 0.032, 0.000, -1.040, 12:40:54.173, 1587811254173
70, 1128.35, 452.19, 611.02, 832.16, 0.032, 0.000, -1.040, 12:40:54.173, 1587811254173
71, 1161.63, 492.07, 613.27, 836.64, 0.032, 0.000, -1.040, 12:40:54.174, 1587811254174
72, 1145.69, 470.76, 605.03, 862.51, 0.032, 0.000, -1.040, 12:40:54.174, 1587811254174
73, 1108.04, 436.57, 600.67, 860.60, 0.032, 0.000, -1.040, 12:40:54.187, 1587811254187
74, 1130.61, 456.67, 610.19, 829.67, 0.032, 0.000, -1.040, 12:40:54.187, 1587811254187
75, 1163.74, 500.04, 620.97, 838.30, 0.032, 0.000, -1.040, 12:40:54.203, 1587811254203
76, 1145.70, 473.94, 604.92, 860.05, 0.032, 0.000, -1.040, 12:40:54.203, 1587811254203
77, 1113.58, 434.82, 600.40, 855.41, 0.032, 0.000, -1.040, 12:40:54.204, 1587811254204
78, 1125.87, 454.25, 611.24, 830.10, 0.032, 0.000, -1.040, 12:40:54.204, 1587811254204
79, 1158.59, 492.52, 616.45, 838.27, 0.032, 0.000, -1.040, 12:40:54.234, 1587811254234
80, 1141.57, 469.72, 598.70, 860.48, 0.032, 0.000, -1.040, 12:40:54.234, 1587811254234
81, 1103.67, 429.79, 591.58, 855.29, 0.032, 0.000, -1.040, 12:40:54.236, 1587811254236
82, 1126.13, 451.49, 605.47, 830.86, 0.032, 0.000, -1.040, 12:40:54.236, 1587811254236
83, 1157.88, 488.40, 607.08, 841.76, 0.032, 0.000, -1.040, 12:40:54.236, 1587811254236
84, 1140.54, 474.24, 606.11, 867.48, 0.032, 0.000, -1.040, 12:40:54.236, 1587811254236
85, 1109.25, 434.63, 599.03, 862.58, 0.032, 0.000, -1.040, 12:40:54.247, 1587811254247
86, 1131.44, 452.83, 608.08, 836.98, 0.032, 0.000, -1.024, 12:40:54.247, 1587811254247
87, 1161.29, 490.35, 613.53, 841.64, 0.032, 0.000, -1.024, 12:40:54.263, 1587811254263
88, 1138.80, 467.45, 602.70, 864.78, 0.032, 0.000, -1.024, 12:40:54.263, 1587811254263
89, 1108.64, 436.03, 594.35, 858.15, 0.032, 0.000, -1.024, 12:40:54.263, 1587811254263
90, 1128.33, 451.67, 604.82, 834.48, 0.032, 0.000, -1.024, 12:40:54.263, 1587811254263
91, 1164.21, 493.79, 615.21, 844.65, 0.032, 0.000, -1.024, 12:40:54.278, 1587811254278
92, 1143.03, 469.26, 599.72, 865.69, 0.032, 0.000, -1.024, 12:40:54.278, 1587811254278
93, 1112.69, 430.85, 596.71, 859.93, 0.032, 0.000, -1.024, 12:40:54.293, 1587811254293
94, 1130.99, 454.34, 613.32, 835.85, 0.032, 0.000, -1.024, 12:40:54.293, 1587811254293
95, 1166.85, 491.30, 616.91, 840.61, 0.032, 0.000, -1.024, 12:40:54.293, 1587811254293
96, 1142.30, 473.24, 604.57, 864.93, 0.032, 0.000, -1.024, 12:40:54.293, 1587811254293
97, 1108.06, 433.66, 599.80, 859.67, 0.032, 0.000, -1.024, 12:40:54.308, 1587811254308
98, 1134.38, 455.71, 613.93, 836.01, 0.032, 0.000, -1.024, 12:40:54.308, 1587811254308
99, 1159.76, 485.80, 611.58, 840.75, 0.032, 0.000, -1.024, 12:40:54.323, 1587811254323
100, 1142.44, 469.27, 603.50, 864.88, 0.032, 0.000, -1.024, 12:40:54.323, 1587811254323
101, 1109.39, 425.98, 594.50, 857.63, 0.032, 0.000, -1.024, 12:40:54.323, 1587811254323
102, 1127.50, 448.98, 609.08, 832.61, 0.032, 0.000, -1.024, 12:40:54.323, 1587811254323
103, 1159.28, 487.06, 611.97, 839.15, 0.032, 0.000, -1.024, 12:40:54.337, 1587811254337
104, 1139.30, 452.97, 590.45, 863.39, 0.032, 0.000, -1.024, 12:40:54.337, 1587811254337
105, 1100.45, 407.40, 584.89, 855.93, 0.032, 0.000, -1.024, 12:40:54.353, 1587811254353
106, 1128.93, 444.77, 609.30, 832.39, 0.032, 0.000, -1.040, 12:40:54.353, 1587811254353
107, 1162.49, 482.71, 613.75, 840.92, 0.032, 0.000, -1.040, 12:40:54.354, 1587811254354
108, 1136.89, 456.82, 601.72, 861.25, 0.032, 0.000, -1.040, 12:40:54.354, 1587811254354
109, 1107.05, 420.84, 601.73, 858.03, 0.032, 0.000, -1.040, 12:40:54.367, 1587811254367
110, 1127.77, 442.59, 609.81, 827.78, 0.032, 0.000, -1.040, 12:40:54.367, 1587811254367
111, 1153.36, 473.84, 612.19, 833.90, 0.032, 0.000, -1.040, 12:40:54.383, 1587811254383
112, 1146.31, 466.10, 603.29, 863.21, 0.032, 0.000, -1.040, 12:40:54.383, 1587811254383
113, 1108.88, 425.46, 598.72, 861.87, 0.032, 0.000, -1.040, 12:40:54.398, 1587811254398
114, 1131.70, 447.72, 613.39, 838.30, 0.032, 0.000, -1.040, 12:40:54.398, 1587811254398
115, 1167.37, 493.31, 627.06, 842.73, 0.032, 0.000, -1.040, 12:40:54.399, 1587811254399
116, 1147.92, 469.75, 611.13, 875.33, 0.032, 0.000, -1.040, 12:40:54.399, 1587811254399
117, 1115.00, 430.94, 605.48, 862.03, 0.032, 0.000, -1.040, 12:40:54.413, 1587811254413
118, 1137.60, 455.37, 620.75, 835.62, 0.032, 0.000, -1.040, 12:40:54.413, 1587811254413
119, 1170.06, 487.77, 621.87, 840.11, 0.032, 0.000, -1.040, 12:40:54.415, 1587811254415
120, 1143.53, 467.96, 612.14, 861.99, 0.032, 0.000, -1.040, 12:40:54.415, 1587811254415
121, 1112.31, 429.13, 605.33, 861.33, 0.032, 0.000, -1.040, 12:40:54.427, 1587811254427
122, 1131.30, 448.71, 612.72, 834.95, 0.032, 0.000, -1.040, 12:40:54.427, 1587811254427
123, 1160.65, 483.96, 620.37, 840.99, 0.032, 0.000, -1.040, 12:40:54.443, 1587811254443
124, 1140.29, 463.56, 606.62, 859.96, 0.032, 0.000, -1.040, 12:40:54.443, 1587811254443
125, 1106.26, 427.01, 598.91, 859.08, 0.032, 0.000, -1.040, 12:40:54.459, 1587811254459
126, 1125.09, 444.78, 613.38, 831.37, 0.032, 0.000, -1.024, 12:40:54.459, 1587811254459
127, 1154.37, 483.27, 615.57, 839.94, 0.032, 0.000, -1.024, 12:40:54.460, 1587811254460
128, 1137.19, 462.12, 603.72, 864.32, 0.032, 0.000, -1.024, 12:40:54.460, 1587811254460
129, 1112.84, 427.28, 601.56, 861.01, 0.032, 0.000, -1.024, 12:40:54.473, 1587811254473
130, 1131.19, 446.35, 614.45, 835.91, 0.032, 0.000, -1.024, 12:40:54.473, 1587811254473
131, 1158.93, 484.86, 620.59, 844.52, 0.032, 0.000, -1.024, 12:40:54.474, 1587811254474
132, 1138.46, 461.87, 604.13, 858.76, 0.032, 0.000, -1.024, 12:40:54.474, 1587811254474
133, 1112.85, 429.91, 605.31, 855.24, 0.032, 0.000, -1.024, 12:40:54.488, 1587811254488
134, 1126.27, 442.20, 606.37, 834.18, 0.032, 0.000, -1.024, 12:40:54.488, 1587811254488
135, 1161.00, 480.44, 615.04, 843.45, 0.032, 0.000, -1.024, 12:40:54.503, 1587811254503
136, 1133.55, 459.46, 601.61, 861.16, 0.032, 0.000, -1.024, 12:40:54.503, 1587811254503
137, 1107.94, 425.47, 600.37, 856.30, 0.032, 0.000, -1.024, 12:40:54.518, 1587811254518
138, 1129.22, 449.37, 615.70, 835.35, 0.032, 0.000, -1.024, 12:40:54.518, 1587811254518
139, 1159.26, 479.22, 617.86, 845.01, 0.032, 0.000, -1.024, 12:40:54.519, 1587811254519
140, 1138.72, 462.02, 612.32, 869.57, 0.032, 0.000, -1.024, 12:40:54.519, 1587811254519
141, 1107.19, 427.09, 603.99, 852.90, 0.032, 0.000, -1.024, 12:40:54.533, 1587811254533
142, 1131.04, 448.74, 612.24, 835.85, 0.032, 0.000, -1.024, 12:40:54.533, 1587811254533
143, 1157.68, 485.49, 613.67, 838.92, 0.032, 0.000, -1.024, 12:40:54.533, 1587811254533
144, 1139.63, 464.82, 603.61, 865.73, 0.032, 0.000, -1.024, 12:40:54.533, 1587811254533
145, 1107.95, 429.02, 602.63, 854.86, 0.032, 0.000, -1.024, 12:40:54.547, 1587811254547
146, 1129.95, 449.37, 619.41, 833.66, 0.032, 0.000, -1.024, 12:40:54.547, 1587811254547
147, 1164.95, 485.88, 625.45, 843.44, 0.032, 0.000, -1.024, 12:40:54.564, 1587811254564
148, 1144.25, 462.81, 603.83, 864.95, 0.032, 0.000, -1.024, 12:40:54.564, 1587811254564
149, 1110.48, 428.39, 603.10, 871.59, 0.032, 0.000, -1.024, 12:40:54.564, 1587811254564
150, 1130.13, 446.56, 613.25, 840.31, 0.032, 0.000, -1.024, 12:40:54.564, 1587811254564
151, 1160.72, 478.79, 618.80, 845.02, 0.032, 0.000, -1.024, 12:40:54.577, 1587811254577
152, 1138.61, 462.19, 601.62, 865.76, 0.032, 0.000, -1.024, 12:40:54.577, 1587811254577
153, 1113.25, 422.43, 602.08, 852.43, 0.032, 0.000, -1.024, 12:40:54.593, 1587811254593
154, 1130.07, 445.02, 610.82, 833.86, 0.032, 0.000, -1.024, 12:40:54.593, 1587811254593
155, 1163.51, 484.40, 617.21, 836.55, 0.032, 0.000, -1.024, 12:40:54.594, 1587811254594
156, 1142.45, 459.79, 601.50, 865.37, 0.032, 0.000, -1.024, 12:40:54.594, 1587811254594
157, 1108.49, 422.49, 595.61, 858.08, 0.032, 0.000, -1.024, 12:40:54.608, 1587811254608
158, 1132.81, 442.07, 612.51, 833.23, 0.032, 0.000, -1.024, 12:40:54.608, 1587811254608
159, 1165.68, 486.39, 616.75, 842.04, 0.032, 0.000, -1.024, 12:40:54.623, 1587811254623
160, 1143.69, 458.95, 606.18, 869.63, 0.032, 0.000, -1.024, 12:40:54.623, 1587811254623
161, 1110.21, 418.30, 593.95, 857.16, 0.032, 0.000, -1.024, 12:40:54.623, 1587811254623
162, 1130.90, 442.42, 607.61, 827.24, 0.032, 0.000, -1.024, 12:40:54.623, 1587811254623
163, 1163.49, 478.51, 614.63, 836.74, 0.032, 0.000, -1.024, 12:40:54.638, 1587811254638
164, 1138.30, 461.84, 605.02, 862.60, 0.032, 0.000, -1.024, 12:40:54.638, 1587811254638
165, 1114.28, 427.74, 604.80, 863.21, 0.032, 0.000, -1.024, 12:40:54.653, 1587811254653
166, 1127.93, 445.82, 606.99, 831.41, 0.032, 0.000, -1.024, 12:40:54.653, 1587811254653
167, 1161.61, 481.68, 621.65, 845.22, 0.032, 0.000, -1.024, 12:40:54.654, 1587811254654
168, 1141.15, 464.80, 606.46, 867.73, 0.032, 0.000, -1.024, 12:40:54.654, 1587811254654
169, 1111.76, 427.65, 606.12, 861.49, 0.032, 0.000, -1.024, 12:40:54.667, 1587811254667
170, 1134.14, 447.48, 607.88, 836.39, 0.032, 0.000, -1.024, 12:40:54.668, 1587811254668
171, 1164.69, 481.49, 614.62, 839.88, 0.032, 0.000, -1.024, 12:40:54.683, 1587811254683
172, 1142.20, 457.05, 604.25, 871.40, 0.032, 0.000, -1.024, 12:40:54.683, 1587811254683
173, 1115.01, 428.46, 601.55, 865.97, 0.032, 0.000, -1.024, 12:40:54.683, 1587811254683
174, 1135.01, 446.03, 617.62, 839.61, 0.032, 0.000, -1.024, 12:40:54.683, 1587811254683
175, 1165.71, 484.78, 620.61, 843.41, 0.032, 0.000, -1.024, 12:40:54.697, 1587811254697
176, 1139.55, 465.37, 603.76, 874.01, 0.032, 0.000, -1.024, 12:40:54.697, 1587811254697
177, 1108.28, 425.36, 598.21, 863.42, 0.032, 0.000, -1.024, 12:40:54.714, 1587811254714
178, 1136.49, 457.71, 621.17, 846.60, 0.032, 0.000, -1.024, 12:40:54.714, 1587811254714
179, 1164.16, 490.77, 620.84, 848.78, 0.032, 0.000, -1.024, 12:40:54.715, 1587811254715
180, 1142.10, 471.96, 606.28, 879.99, 0.032, 0.000, -1.024, 12:40:54.715, 1587811254715
181, 1116.58, 441.76, 607.46, 866.49, 0.032, 0.000, -1.024, 12:40:54.727, 1587811254727
182, 1132.85, 454.43, 610.21, 840.06, 0.032, 0.000, -1.024, 12:40:54.727, 1587811254727
183, 1163.59, 485.76, 616.02, 850.83, 0.032, 0.000, -1.024, 12:40:54.743, 1587811254743
184, 1139.58, 463.24, 601.80, 871.59, 0.032, 0.000, -1.024, 12:40:54.743, 1587811254743
185, 1105.37, 424.95, 593.25, 862.67, 0.032, 0.000, -1.024, 12:40:54.744, 1587811254744
186, 1131.08, 450.76, 614.08, 842.89, 0.032, 0.000, -1.040, 12:40:54.744, 1587811254744
187, 1158.33, 483.95, 614.32, 846.09, 0.032, 0.000, -1.040, 12:40:54.757, 1587811254757
188, 1141.28, 471.36, 605.63, 871.16, 0.032, 0.000, -1.040, 12:40:54.757, 1587811254757
189, 1112.61, 433.27, 604.62, 866.31, 0.032, 0.000, -1.040, 12:40:54.773, 1587811254773
190, 1136.28, 456.14, 620.15, 837.78, 0.032, 0.000, -1.040, 12:40:54.773, 1587811254773
191, 1166.75, 492.79, 621.11, 845.31, 0.032, 0.000, -1.040, 12:40:54.775, 1587811254775
192, 1148.18, 467.44, 605.52, 868.52, 0.032, 0.000, -1.040, 12:40:54.775, 1587811254775
193, 1120.42, 436.33, 608.05, 866.91, 0.032, 0.000, -1.040, 12:40:54.787, 1587811254787
194, 1134.18, 454.87, 616.39, 837.32, 0.032, 0.000, -1.040, 12:40:54.787, 1587811254787
195, 1163.01, 491.98, 614.68, 852.89, 0.032, 0.000, -1.040, 12:40:54.803, 1587811254803
196, 1147.80, 470.09, 603.51, 876.83, 0.032, 0.000, -1.040, 12:40:54.803, 1587811254803
197, 1114.53, 431.23, 603.20, 864.52, 0.032, 0.000, -1.040, 12:40:54.803, 1587811254803
198, 1131.48, 449.56, 608.03, 833.46, 0.032, 0.000, -1.040, 12:40:54.803, 1587811254803
199, 1162.42, 485.27, 614.99, 845.46, 0.032, 0.000, -1.040, 12:40:54.818, 1587811254818
200, 1139.35, 462.45, 605.12, 866.03, 0.032, 0.000, -1.040, 12:40:54.818, 1587811254818
0, 1101.47, 421.05, 594.65, 859.03, 0.032, 0.000, -1.040, 12:40:54.819, 1587811254819
1, 1127.42, 447.02, 611.14, 833.30, 0.032, 0.000, -1.040, 12:40:54.832, 1587811254832
2, 1157.59, 482.95, 614.63, 839.13, 0.032, 0.000, -1.040, 12:40:54.832, 1587811254832
3, 1134.91, 465.06, 602.20, 863.08, 0.032, 0.000, -1.040, 12:40:54.850, 1587811254850
4, 1103.88, 426.10, 597.34, 861.28, 0.032, 0.000, -1.040, 12:40:54.850, 1587811254850
5, 1130.10, 447.87, 607.74, 838.32, 0.032, 0.000, -1.040, 12:40:54.850, 1587811254850
6, 1160.23, 486.85, 611.05, 848.16, 0.032, 0.000, -1.040, 12:40:54.850, 1587811254850
7, 1139.61, 462.21, 594.79, 866.00, 0.032, 0.000, -1.040, 12:40:54.862, 1587811254862
8, 1107.71, 426.23, 591.01, 860.41, 0.032, 0.000, -1.040, 12:40:54.862, 1587811254862
9, 1129.19, 448.43, 606.80, 837.39, 0.032, 0.000, -1.040, 12:40:54.895, 1587811254895
10, 1164.90, 488.35, 615.51, 845.65, 0.032, 0.000, -1.040, 12:40:54.895, 1587811254895
11, 1144.93, 467.75, 605.50, 872.90, 0.032, 0.000, -1.040, 12:40:54.896, 1587811254896
12, 1106.77, 429.24, 596.40, 865.93, 0.032, 0.000, -1.040, 12:40:54.896, 1587811254896
13, 1132.90, 456.90, 611.77, 844.73, 0.032, 0.000, -1.040, 12:40:54.896, 1587811254896
14, 1167.19, 488.52, 620.86, 850.53, 0.032, 0.000, -1.040, 12:40:54.896, 1587811254896
15, 1142.34, 468.94, 605.98, 875.83, 0.032, 0.000, -1.040, 12:40:54.897, 1587811254897
16, 1111.46, 430.24, 599.89, 869.75, 0.032, 0.000, -1.040, 12:40:54.897, 1587811254897
17, 1135.93, 449.44, 611.05, 844.45, 0.032, 0.000, -1.040, 12:40:54.907, 1587811254907
18, 1164.28, 485.86, 612.45, 844.80, 0.032, 0.000, -1.040, 12:40:54.907, 1587811254907
19, 1148.15, 465.78, 605.66, 871.37, 0.032, 0.000, -1.040, 12:40:54.923, 1587811254923
20, 1110.05, 425.76, 594.80, 857.81, 0.032, 0.000, -1.040, 12:40:54.923, 1587811254923
21, 1129.50, 442.73, 605.67, 835.70, 0.032, 0.000, -1.040, 12:40:54.938, 1587811254938
22, 1163.63, 482.07, 612.74, 843.91, 0.032, 0.000, -1.040, 12:40:54.938, 1587811254938
23, 1145.69, 463.05, 606.09, 872.66, 0.032, 0.000, -1.040, 12:40:54.953, 1587811254953
24, 1112.48, 431.23, 603.52, 870.29, 0.032, 0.000, -1.040, 12:40:54.953, 1587811254953
25, 1128.88, 447.28, 611.66, 843.03, 0.032, 0.000, -1.040, 12:40:54.954, 1587811254954
26, 1159.76, 482.80, 610.13, 850.92, 0.032, 0.000, -1.040, 12:40:54.954, 1587811254954
27, 1141.97, 459.10, 599.90, 869.32, 0.032, 0.000, -1.040, 12:40:54.968, 1587811254968
28, 1107.73, 419.53, 598.92, 863.32, 0.032, 0.000, -1.040, 12:40:54.968, 1587811254968
29, 1130.07, 441.78, 605.15, 838.94, 0.032, 0.000, -1.040, 12:40:54.968, 1587811254968
30, 1163.12, 490.47, 617.66, 844.87, 0.032, 0.000, -1.040, 12:40:54.968, 1587811254968
31, 1144.44, 462.75, 601.53, 872.46, 0.032, 0.000, -1.040, 12:40:54.982, 1587811254982
32, 1113.39, 427.80, 601.45, 861.87, 0.032, 0.000, -1.040, 12:40:54.982, 1587811254982
33, 1135.16, 447.09, 613.59, 842.70, 0.032, 0.000, -1.040, 12:40:55.014, 1587811255014
34, 1168.19, 485.76, 620.24, 855.39, 0.032, 0.000, -1.040, 12:40:55.014, 1587811255014
35, 1145.75, 465.31, 605.27, 880.47, 0.032, 0.000, -1.040, 12:40:55.015, 1587811255015
36, 1114.16, 420.39, 598.60, 863.63, 0.032, 0.000, -1.040, 12:40:55.015, 1587811255015
37, 1129.03, 441.20, 604.74, 835.41, 0.032, 0.000, -1.040, 12:40:55.016, 1587811255016
38, 1161.95, 479.78, 610.80, 848.13, 0.032, 0.000, -1.040, 12:40:55.016, 1587811255016
39, 1143.30, 465.78, 602.27, 873.89, 0.032, 0.000, -1.040, 12:40:55.017, 1587811255017
40, 1113.85, 427.94, 601.85, 868.70, 0.032, 0.000, -1.040, 12:40:55.017, 1587811255017
41, 1137.77, 450.04, 612.24, 842.80, 0.032, 0.000, -1.040, 12:40:55.027, 1587811255027
42, 1169.38, 489.19, 620.99, 848.66, 0.032, 0.000, -1.040, 12:40:55.027, 1587811255027
43, 1143.58, 462.95, 603.50, 869.82, 0.032, 0.000, -1.040, 12:40:55.043, 1587811255043
44, 1114.68, 425.14, 593.65, 860.66, 0.032, 0.000, -1.040, 12:40:55.043, 1587811255043
45, 1132.02, 439.46, 599.15, 834.63, 0.032, 0.000, -1.040, 12:40:55.058, 1587811255058
46, 1161.79, 484.51, 614.73, 852.17, 0.032, 0.000, -1.040, 12:40:55.058, 1587811255058
47, 1137.97, 455.55, 603.15, 868.12, 0.032, 0.000, -1.040, 12:40:55.059, 1587811255059
48, 1110.92, 405.24, 588.33, 856.61, 0.032, 0.000, -1.040, 12:40:55.059, 1587811255059
49, 1139.89, 452.67, 618.55, 835.21, 0.032, 0.000, -1.040, 12:40:55.073, 1587811255073
50, 1169.04, 487.19, 618.99, 842.75, 0.032, 0.000, -1.040, 12:40:55.073, 1587811255073
51, 1148.19, 464.50, 610.10, 862.43, 0.032, 0.000, -1.040, 12:40:55.088, 1587811255088
52, 1115.77, 423.70, 603.52, 857.85, 0.032, 0.000, -1.040, 12:40:55.088, 1587811255088
53, 1136.68, 439.33, 609.38, 830.86, 0.032, 0.000, -1.040, 12:40:55.088, 1587811255088
54, 1167.57, 474.21, 610.43, 837.17, 0.032, 0.000, -1.040, 12:40:55.088, 1587811255088
55, 1143.34, 448.25, 591.87, 865.77, 0.032, 0.000, -1.040, 12:40:55.102, 1587811255102
56, 1114.05, 414.19, 589.78, 857.62, 0.032, 0.000, -1.040, 12:40:55.102, 1587811255102
57, 1136.16, 442.76, 607.29, 836.33, 0.032, 0.000, -1.040, 12:40:55.118, 1587811255118
58, 1169.31, 479.63, 616.05, 841.79, 0.032, 0.000, -1.040, 12:40:55.118, 1587811255118
59, 1145.77, 457.57, 607.28, 866.62, 0.032, 0.000, -1.040, 12:40:55.119, 1587811255119
60, 1115.36, 416.12, 598.43, 857.25, 0.032, 0.000, -1.040, 12:40:55.119, 1587811255119
61, 1134.01, 440.26, 614.28, 833.26, 0.032, 0.000, -1.040, 12:40:55.132, 1587811255132
62, 1163.29, 474.86, 612.82, 843.27, 0.032, 0.000, -1.040, 12:40:55.132, 1587811255132
63, 1146.37, 451.03, 599.02, 863.26, 0.032, 0.000, -1.040, 12:40:55.148, 1587811255148
64, 1114.67, 418.24, 594.01, 855.24, 0.032, 0.000, -1.040, 12:40:55.148, 1587811255148
65, 1132.49, 435.73, 606.64, 834.62, 0.032, 0.000, -1.040, 12:40:55.149, 1587811255149
66, 1165.21, 475.45, 610.43, 841.55, 0.032, 0.000, -1.040, 12:40:55.149, 1587811255149
67, 1147.53, 460.44, 603.88, 871.72, 0.032, 0.000, -1.040, 12:40:55.162, 1587811255162
68, 1122.27, 424.20, 599.45, 863.09, 0.032, 0.000, -1.040, 12:40:55.162, 1587811255162
69, 1139.18, 447.96, 613.55, 838.16, 0.032, 0.000, -1.040, 12:40:55.178, 1587811255178
70, 1171.41, 485.82, 618.73, 845.59, 0.032, 0.000, -1.040, 12:40:55.178, 1587811255178
71, 1151.19, 460.88, 606.03, 860.57, 0.032, 0.000, -1.040, 12:40:55.179, 1587811255179
72, 1123.32, 424.02, 602.14, 856.69, 0.032, 0.000, -1.040, 12:40:55.179, 1587811255179
73, 1138.47, 435.25, 606.07, 829.66, 0.032, 0.000, -1.040, 12:40:55.193, 1587811255193
74, 1164.41, 476.85, 613.26, 843.39, 0.032, 0.000, -1.040, 12:40:55.193, 1587811255193
75, 1146.85, 455.94, 600.67, 870.90, 0.032, 0.000, -1.040, 12:40:55.209, 1587811255209
76, 1113.82, 416.42, 592.84, 857.03, 0.032, 0.000, -1.040, 12:40:55.209, 1587811255209
77, 1133.21, 442.65, 608.36, 840.38, 0.032, 0.000, -1.040, 12:40:55.210, 1587811255210
78, 1165.03, 481.01, 616.84, 846.54, 0.032, 0.000, -1.040, 12:40:55.210, 1587811255210
79, 1151.73, 465.53, 606.76, 860.79, 0.032, 0.000, -1.040, 12:40:55.222, 1587811255222
80, 1114.99, 424.54, 601.71, 858.23, 0.032, 0.000, -1.040, 12:40:55.222, 1587811255222
81, 1134.24, 445.31, 613.48, 834.06, 0.032, 0.000, -1.040, 12:40:55.238, 1587811255238
82, 1166.65, 481.05, 616.41, 847.42, 0.032, 0.000, -1.040, 12:40:55.238, 1587811255238
83, 1145.80, 463.19, 603.78, 868.45, 0.032, 0.000, -1.040, 12:40:55.238, 1587811255238
84, 1114.34, 429.26, 603.03, 861.44, 0.032, 0.000, -1.040, 12:40:55.238, 1587811255238
85, 1132.59, 443.62, 607.97, 835.35, 0.032, 0.000, -1.040, 12:40:55.253, 1587811255253
86, 1164.98, 486.75, 618.39, 846.12, 0.032, 0.000, -1.040, 12:40:55.253, 1587811255253
87, 1143.77, 463.58, 607.89, 872.35, 0.032, 0.000, -1.040, 12:40:55.268, 1587811255268
88, 1119.06, 428.57, 603.17, 864.19, 0.032, 0.000, -1.040, 12:40:55.268, 1587811255268
89, 1140.08, 453.52, 617.06, 835.77, 0.032, 0.000, -1.040, 12:40:55.268, 1587811255268
90, 1165.16, 485.92, 620.56, 842.44, 0.032, 0.000, -1.040, 12:40:55.268, 1587811255268
91, 1149.48, 462.95, 607.84, 870.66, 0.032, 0.000, -1.040, 12:40:55.283, 1587811255283
92, 1114.04, 429.21, 607.14, 867.93, 0.032, 0.000, -1.040, 12:40:55.283, 1587811255283
93, 1132.15, 453.62, 616.47, 838.15, 0.032, 0.000, -1.040, 12:40:55.298, 1587811255298
94, 1165.26, 491.44, 622.73, 848.23, 0.032, 0.000, -1.040, 12:40:55.298, 1587811255298
95, 1146.99, 470.71, 611.14, 870.61, 0.032, 0.000, -1.040, 12:40:55.298, 1587811255298
96, 1116.01, 434.31, 604.57, 864.03, 0.032, 0.000, -1.040, 12:40:55.298, 1587811255298
97, 1130.88, 449.18, 617.88, 833.89, 0.032, 0.000, -1.040, 12:40:55.312, 1587811255312
98, 1162.92, 483.48, 613.70, 842.86, 0.032, 0.000, -1.040, 12:40:55.312, 1587811255312
99, 1140.94, 465.09, 601.39, 866.66, 0.032, 0.000, -1.040, 12:40:55.329, 1587811255329
100, 1118.47, 430.14, 602.20, 858.77, 0.032, 0.000, -1.040, 12:40:55.329, 1587811255329
101, 1136.54, 452.81, 613.78, 835.50, 0.032, 0.000, -1.040, 12:40:55.330, 1587811255330
102, 1171.08, 489.50, 620.26, 847.63, 0.032, 0.000, -1.040, 12:40:55.330, 1587811255330
103, 1148.29, 472.80, 611.36, 871.24, 0.032, 0.000, -1.040, 12:40:55.342, 1587811255342
104, 1121.53, 435.87, 611.97, 868.48, 0.032, 0.000, -1.040, 12:40:55.342, 1587811255342
105, 1137.71, 455.91, 618.17, 839.68, 0.032, 0.000, -1.040, 12:40:55.358, 1587811255358
106, 1165.05, 490.06, 623.22, 851.76, 0.032, 0.000, -1.024, 12:40:55.358, 1587811255358
107, 1149.87, 467.55, 610.79, 876.73, 0.032, 0.000, -1.024, 12:40:55.359, 1587811255359
108, 1117.58, 435.32, 613.00, 865.26, 0.032, 0.000, -1.024, 12:40:55.359, 1587811255359
109, 1139.31, 454.01, 618.54, 844.49, 0.032, 0.000, -1.024, 12:40:55.372, 1587811255372
110, 1168.95, 490.92, 622.47, 851.56, 0.032, 0.000, -1.024, 12:40:55.372, 1587811255372
111, 1143.95, 472.46, 610.89, 870.48, 0.032, 0.000, -1.024, 12:40:55.388, 1587811255388
112, 1112.86, 434.16, 604.07, 860.90, 0.032, 0.000, -1.024, 12:40:55.388, 1587811255388
113, 1133.84, 457.69, 618.16, 839.41, 0.032, 0.000, -1.024, 12:40:55.389, 1587811255389
114, 1166.60, 489.80, 621.35, 840.90, 0.032, 0.000, -1.024, 12:40:55.389, 1587811255389
115, 1145.85, 475.85, 613.93, 868.55, 0.032, 0.000, -1.024, 12:40:55.403, 1587811255403
116, 1117.03, 433.57, 602.74, 857.33, 0.032, 0.000, -1.024, 12:40:55.403, 1587811255403
117, 1140.32, 460.00, 620.81, 836.00, 0.032, 0.000, -1.024, 12:40:55.418, 1587811255418
118, 1173.09, 495.64, 623.66, 839.03, 0.032, 0.000, -1.024, 12:40:55.418, 1587811255418
119, 1150.62, 474.86, 609.79, 866.04, 0.032, 0.000, -1.024, 12:40:55.419, 1587811255419
120, 1121.26, 436.36, 606.21, 865.80, 0.032, 0.000, -1.024, 12:40:55.419, 1587811255419
121, 1141.42, 459.34, 615.65, 835.90, 0.032, 0.000, -1.024, 12:40:55.433, 1587811255433
122, 1162.92, 486.93, 610.42, 847.80, 0.032, 0.000, -1.024, 12:40:55.433, 1587811255433
123, 1146.87, 472.25, 600.65, 877.26, 0.032, 0.000, -1.024, 12:40:55.448, 1587811255448
124, 1114.89, 435.82, 601.63, 864.92, 0.032, 0.000, -1.024, 12:40:55.448, 1587811255448
125, 1134.83, 459.54, 614.81, 841.74, 0.032, 0.000, -1.024, 12:40:55.448, 1587811255448
126, 1170.65, 496.10, 618.16, 856.21, 0.032, 0.000, -1.024, 12:40:55.448, 1587811255448
127, 1150.24, 470.16, 600.43, 872.01, 0.032, 0.000, -1.024, 12:40:55.462, 1587811255462
128, 1114.00, 435.08, 603.02, 864.87, 0.032, 0.000, -1.024, 12:40:55.462, 1587811255462
129, 1133.52, 456.99, 608.62, 844.42, 0.032, 0.000, -1.024, 12:40:55.478, 1587811255478
130, 1168.26, 495.61, 620.67, 850.53, 0.032, 0.000, -1.024, 12:40:55.478, 1587811255478
131, 1144.66, 473.14, 604.86, 874.01, 0.032, 0.000, -1.024, 12:40:55.478, 1587811255478
132, 1118.33, 434.89, 599.24, 864.92, 0.032, 0.000, -1.024, 12:40:55.478, 1587811255478
133, 1139.69, 458.65, 609.47, 840.86, 0.032, 0.000, -1.024, 12:40:55.510, 1587811255510
134, 1164.49, 495.02, 619.16, 849.55, 0.032, 0.000, -1.024, 12:40:55.510, 1587811255510
135, 1146.64, 477.63, 610.02, 878.39, 0.032, 0.000, -1.024, 12:40:55.510, 1587811255510
136, 1114.83, 439.62, 608.15, 869.19, 0.032, 0.000, -1.024, 12:40:55.510, 1587811255510
137, 1137.00, 462.26, 621.70, 844.20, 0.032, 0.000, -1.024, 12:40:55.510, 1587811255510
138, 1166.56, 499.10, 620.67, 851.11, 0.032, 0.000, -1.024, 12:40:55.510, 1587811255510
139, 1149.13, 468.32, 607.40, 875.77, 0.032, 0.000, -1.024, 12:40:55.522, 1587811255522
140, 1113.14, 432.13, 600.12, 862.79, 0.032, 0.000, -1.024, 12:40:55.522, 1587811255522
141, 1133.75, 457.93, 617.78, 844.17, 0.032, 0.000, -1.024, 12:40:55.539, 1587811255539
142, 1169.14, 493.98, 624.27, 855.35, 0.032, 0.000, -1.024, 12:40:55.539, 1587811255539
143, 1146.91, 475.55, 609.85, 882.50, 0.032, 0.000, -1.024, 12:40:55.541, 1587811255541
144, 1119.33, 443.74, 607.22, 875.47, 0.032, 0.000, -1.024, 12:40:55.541, 1587811255541
145, 1143.39, 461.21, 619.45, 844.64, 0.032, 0.000, -1.024, 12:40:55.569, 1587811255569
146, 1167.40, 495.66, 617.06, 854.06, 0.032, 0.000, -1.024, 12:40:55.569, 1587811255569
147, 1151.50, 475.03, 613.04, 878.12, 0.032, 0.000, -1.024, 12:40:55.570, 1587811255570
148, 1122.64, 435.76, 601.65, 870.39, 0.032, 0.000, -1.024, 12:40:55.570, 1587811255570
149, 1141.40, 460.00, 613.86, 848.52, 0.032, 0.000, -1.024, 12:40:55.571, 1587811255571
150, 1174.50, 497.96, 621.04, 853.25, 0.032, 0.000, -1.024, 12:40:55.571, 1587811255571
151, 1151.13, 478.18, 606.66, 878.26, 0.032, 0.000, -1.024, 12:40:55.582, 1587811255582
152, 1115.07, 435.65, 597.18, 866.02, 0.032, 0.000, -1.024, 12:40:55.582, 1587811255582
153, 1139.27, 458.62, 614.98, 848.20, 0.032, 0.000, -1.024, 12:40:55.598, 1587811255598
154, 1170.66, 495.04, 617.39, 855.43, 0.032, 0.000, -1.024, 12:40:55.598, 1587811255598
155, 1145.56, 468.78, 605.34, 867.97, 0.032, 0.000, -1.024, 12:40:55.598, 1587811255598
156, 1114.49, 439.66, 606.18, 868.72, 0.032, 0.000, -1.024, 12:40:55.598, 1587811255598
157, 1136.58, 461.24, 612.42, 845.32, 0.032, 0.000, -1.024, 12:40:55.629, 1587811255629
158, 1167.56, 493.69, 616.39, 858.13, 0.032, 0.000, -1.024, 12:40:55.629, 1587811255629
159, 1140.86, 464.46, 607.64, 879.17, 0.032, 0.000, -1.024, 12:40:55.629, 1587811255629
160, 1114.06, 433.78, 599.48, 868.71, 0.032, 0.000, -1.024, 12:40:55.629, 1587811255629
161, 1137.08, 454.71, 614.90, 843.51, 0.032, 0.000, -1.024, 12:40:55.630, 1587811255630
162, 1166.02, 494.17, 616.39, 851.64, 0.032, 0.000, -1.024, 12:40:55.630, 1587811255630
163, 1143.67, 471.91, 604.71, 876.60, 0.032, 0.000, -1.024, 12:40:55.643, 1587811255643
164, 1116.57, 437.11, 605.04, 868.46, 0.032, 0.000, -1.024, 12:40:55.643, 1587811255643
165, 1136.76, 457.94, 614.42, 856.09, 0.032, 0.000, -1.024, 12:40:55.658, 1587811255658
166, 1167.85, 490.50, 615.54, 855.93, 0.032, 0.000, -1.024, 12:40:55.658, 1587811255658
167, 1149.19, 477.74, 608.34, 876.21, 0.032, 0.000, -1.024, 12:40:55.659, 1587811255659
168, 1113.83, 431.83, 598.57, 869.31, 0.032, 0.000, -1.024, 12:40:55.659, 1587811255659
169, 1137.05, 451.57, 605.16, 842.11, 0.032, 0.000, -1.024, 12:40:55.673, 1587811255673
170, 1164.09, 491.73, 618.27, 848.47, 0.032, 0.000, -1.024, 12:40:55.673, 1587811255673
171, 1148.61, 473.89, 609.80, 873.31, 0.032, 0.000, -1.024, 12:40:55.688, 1587811255688
172, 1116.43, 435.10, 601.96, 868.89, 0.032, 0.000, -1.024, 12:40:55.688, 1587811255688
173, 1141.11, 452.22, 612.47, 843.92, 0.032, 0.000, -1.024, 12:40:55.689, 1587811255689
174, 1167.53, 488.60, 611.44, 851.14, 0.032, 0.000, -1.024, 12:40:55.689, 1587811255689
175, 1145.58, 471.06, 604.24, 872.55, 0.032, 0.000, -1.024, 12:40:55.702, 1587811255702
176, 1113.45, 428.90, 595.88, 865.37, 0.032, 0.000, -1.024, 12:40:55.702, 1587811255702
177, 1139.95, 454.85, 610.54, 844.49, 0.032, 0.000, -1.024, 12:40:55.719, 1587811255719
178, 1166.29, 492.85, 618.10, 849.33, 0.032, 0.000, -1.024, 12:40:55.719, 1587811255719
179, 1144.87, 468.32, 599.14, 871.36, 0.032, 0.000, -1.024, 12:40:55.719, 1587811255719
180, 1107.01, 431.17, 591.53, 867.08, 0.032, 0.000, -1.024, 12:40:55.719, 1587811255719
181, 1130.78, 449.23, 606.91, 840.08, 0.032, 0.000, -1.024, 12:40:55.732, 1587811255732
182, 1159.41, 491.31, 612.79, 849.01, 0.032, 0.000, -1.024, 12:40:55.732, 1587811255732
183, 1142.48, 466.24, 594.54, 875.75, 0.032, 0.000, -1.024, 12:40:55.748, 1587811255748
184, 1112.03, 435.54, 598.70, 870.88, 0.032, 0.000, -1.024, 12:40:55.748, 1587811255748
185, 1134.00, 461.23, 612.44, 849.68, 0.032, 0.000, -1.024, 12:40:55.749, 1587811255749
186, 1166.01, 489.42, 612.34, 853.98, 0.032, 0.000, -1.024, 12:40:55.749, 1587811255749
187, 1140.87, 463.99, 597.67, 881.31, 0.032, 0.000, -1.024, 12:40:55.762, 1587811255762
188, 1107.98, 426.66, 592.57, 869.46, 0.032, 0.000, -1.024, 12:40:55.762, 1587811255762
189, 1129.77, 447.87, 603.29, 847.07, 0.032, 0.000, -1.024, 12:40:55.778, 1587811255778
190, 1161.24, 489.54, 613.78, 853.22, 0.032, 0.000, -1.024, 12:40:55.778, 1587811255778
191, 1141.53, 466.83, 604.71, 880.52, 0.032, 0.000, -1.024, 12:40:55.778, 1587811255778
192, 1112.64, 432.13, 599.08, 873.58, 0.032, 0.000, -1.024, 12:40:55.778, 1587811255778
193, 1133.69, 459.91, 610.70, 845.83, 0.032, 0.000, -1.024, 12:40:55.792, 1587811255792
194, 1160.94, 492.66, 616.84, 855.74, 0.032, 0.000, -1.024, 12:40:55.792, 1587811255792
195, 1140.67, 464.61, 600.50, 879.77, 0.032, 0.000, -1.024, 12:40:55.808, 1587811255808
196, 1111.71, 432.35, 597.80, 869.16, 0.032, 0.000, -1.024, 12:40:55.808, 1587811255808
197, 1130.47, 449.24, 609.39, 844.71, 0.032, 0.000, -1.024, 12:40:55.808, 1587811255808
198, 1165.01, 489.72, 614.59, 851.30, 0.032, 0.000, -1.024, 12:40:55.808, 1587811255808
199, 1145.23, 469.29, 608.09, 876.10, 0.032, 0.000, -1.024, 12:40:55.823, 1587811255823
200, 1111.30, 429.67, 599.58, 869.38, 0.032, 0.000, -1.024, 12:40:55.823, 1587811255823
0, 1130.07, 451.53, 606.95, 841.97, 0.032, 0.000, -1.024, 12:40:55.824, 1587811255824
1, 1161.26, 482.18, 611.25, 847.56, 0.032, 0.000, -1.024, 12:40:55.838, 1587811255838
2, 1139.44, 465.85, 608.71, 871.87, 0.032, 0.000, -1.024, 12:40:55.838, 1587811255838
3, 1116.53, 425.57, 597.92, 862.28, 0.032, 0.000, -1.024, 12:40:55.853, 1587811255853
4, 1134.87, 448.80, 606.84, 836.28, 0.032, 0.000, -1.024, 12:40:55.853, 1587811255853
5, 1162.21, 489.50, 616.27, 852.62, 0.032, 0.000, -1.024, 12:40:55.853, 1587811255853
6, 1145.92, 465.49, 611.07, 873.52, 0.032, 0.000, -1.024, 12:40:55.853, 1587811255853
7, 1109.65, 430.78, 603.33, 869.86, 0.032, 0.000, -1.024, 12:40:55.867, 1587811255867
8, 1132.63, 448.98, 600.50, 841.10, 0.032, 0.000, -1.024, 12:40:55.867, 1587811255867
9, 1158.62, 482.83, 605.68, 847.98, 0.032, 0.000, -1.024, 12:40:55.883, 1587811255883
10, 1133.48, 455.02, 591.42, 870.13, 0.032, 0.000, -1.024, 12:40:55.883, 1587811255883
11, 1103.04, 420.82, 591.20, 864.37, 0.032, 0.000, -1.024, 12:40:55.884, 1587811255884
12, 1130.82, 440.92, 596.36, 839.72, 0.032, 0.000, -1.024, 12:40:55.884, 1587811255884
13, 1168.03, 482.27, 612.91, 851.35, 0.032, 0.000, -1.024, 12:40:55.898, 1587811255898
14, 1139.77, 458.14, 602.37, 869.66, 0.032, 0.000, -1.024, 12:40:55.898, 1587811255898
15, 1106.35, 427.35, 594.96, 864.28, 0.032, 0.000, -1.024, 12:40:55.913, 1587811255913
16, 1138.74, 451.03, 613.71, 846.64, 0.032, 0.000, -1.024, 12:40:55.913, 1587811255913
17, 1163.02, 487.04, 611.57, 851.31, 0.032, 0.000, -1.024, 12:40:55.913, 1587811255913
18, 1141.85, 463.90, 602.20, 872.82, 0.032, 0.000, -1.024, 12:40:55.913, 1587811255913
19, 1113.88, 426.93, 600.21, 864.96, 0.032, 0.000, -1.024, 12:40:55.927, 1587811255927
20, 1140.01, 448.80, 611.62, 842.84, 0.032, 0.000, -1.024, 12:40:55.927, 1587811255927
21, 1165.36, 481.10, 608.53, 847.32, 0.032, 0.000, -1.024, 12:40:55.944, 1587811255944
22, 1148.31, 463.18, 603.50, 873.20, 0.032, 0.000, -1.024, 12:40:55.944, 1587811255944
23, 1116.02, 422.59, 593.90, 861.91, 0.032, 0.000, -1.024, 12:40:55.944, 1587811255944
24, 1133.63, 443.21, 601.89, 841.61, 0.032, 0.000, -1.024, 12:40:55.944, 1587811255944
25, 1169.00, 479.98, 623.17, 843.96, 0.032, 0.000, -1.024, 12:40:55.957, 1587811255957
26, 1145.66, 453.07, 608.50, 872.28, 0.032, 0.000, -1.024, 12:40:55.957, 1587811255957
27, 1114.82, 416.42, 605.80, 864.26, 0.032, 0.000, -1.024, 12:40:55.974, 1587811255974
28, 1131.53, 435.69, 612.75, 833.81, 0.032, 0.000, -1.024, 12:40:55.974, 1587811255974
29, 1168.15, 477.35, 624.68, 846.64, 0.032, 0.000, -1.024, 12:40:55.975, 1587811255975
30, 1150.69, 458.22, 614.41, 875.62, 0.032, 0.000, -1.024, 12:40:55.975, 1587811255975
31, 1117.67, 426.38, 615.50, 868.69, 0.032, 0.000, -1.024, 12:40:55.987, 1587811255987
32, 1143.61, 455.23, 634.91, 846.78, 0.032, 0.000, -1.024, 12:40:55.987, 1587811255987
33, 1176.48, 486.25, 632.21, 851.19, 0.032, 0.000, -1.024, 12:40:56.003, 1587811256003
34, 1155.78, 466.53, 621.21, 876.04, 0.032, 0.000, -1.024, 12:40:56.003, 1587811256003
35, 1123.84, 423.81, 607.37, 868.12, 0.032, 0.000, -1.024, 12:40:56.005, 1587811256005
36, 1143.16, 445.23, 627.80, 846.66, 0.032, 0.000, -1.024, 12:40:56.005, 1587811256005
37, 1177.10, 487.58, 631.73, 849.66, 0.032, 0.000, -1.024, 12:40:56.017, 1587811256017
38, 1158.22, 471.33, 628.13, 874.12, 0.032, 0.000, -1.024, 12:40:56.017, 1587811256017
39, 1123.30, 432.73, 621.12, 863.86, 0.032, 0.000, -1.024, 12:40:56.033, 1587811256033
40, 1150.77, 454.21, 636.13, 834.66, 0.032, 0.000, -1.024, 12:40:56.033, 1587811256033
41, 1177.95, 484.90, 634.14, 845.76, 0.032, 0.000, -1.024, 12:40:56.033, 1587811256033
42, 1160.10, 462.80, 623.02, 867.43, 0.032, 0.000, -1.024, 12:40:56.033, 1587811256033
43, 1121.92, 428.65, 618.58, 861.53, 0.032, 0.000, -1.024, 12:40:56.064, 1587811256064
44, 1143.23, 445.66, 626.69, 838.47, 0.032, 0.000, -1.024, 12:40:56.064, 1587811256064
45, 1172.37, 479.75, 626.48, 844.56, 0.032, 0.000, -1.024, 12:40:56.064, 1587811256064
46, 1154.80, 457.55, 609.79, 871.69, 0.032, 0.000, -1.024, 12:40:56.064, 1587811256064
47, 1121.23, 426.12, 608.68, 863.46, 0.032, 0.000, -1.024, 12:40:56.065, 1587811256065
48, 1146.69, 448.19, 621.23, 841.26, 0.032, 0.000, -1.024, 12:40:56.065, 1587811256065
49, 1177.82, 484.84, 625.12, 842.46, 0.032, 0.000, -1.024, 12:40:56.078, 1587811256078
50, 1153.63, 459.18, 613.28, 869.95, 0.032, 0.000, -1.024, 12:40:56.078, 1587811256078
51, 1116.83, 418.23, 602.51, 861.73, 0.032, 0.000, -1.024, 12:40:56.093, 1587811256093
52, 1138.60, 440.57, 614.61, 837.46, 0.032, 0.000, -1.024, 12:40:56.093, 1587811256093
53, 1165.73, 473.02, 612.74, 843.28, 0.032, 0.000, -1.024, 12:40:56.094, 1587811256094
54, 1145.17, 459.58, 609.34, 871.77, 0.032, 0.000, -1.024, 12:40:56.094, 1587811256094
55, 1114.68, 420.49, 605.70, 864.04, 0.032, 0.000, -1.024, 12:40:56.108, 1587811256108
56, 1139.11, 444.14, 609.56, 833.78, 0.032, 0.000, -1.024, 12:40:56.108, 1587811256108
57, 1166.23, 475.93, 620.30, 844.82, 0.032, 0.000, -1.024, 12:40:56.123, 1587811256123
58, 1144.02, 456.83, 607.99, 870.19, 0.032, 0.000, -1.024, 12:40:56.123, 1587811256123
59, 1114.29, 425.06, 606.67, 863.42, 0.032, 0.000, -1.024, 12:40:56.124, 1587811256124
60, 1137.12, 441.58, 615.59, 834.99, 0.032, 0.000, -1.024, 12:40:56.124, 1587811256124
61, 1167.22, 478.17, 615.56, 845.56, 0.032, 0.000, -1.024, 12:40:56.137, 1587811256137
62, 1146.54, 459.96, 607.88, 869.91, 0.032, 0.000, -1.024, 12:40:56.137, 1587811256137
63, 1115.50, 419.89, 600.87, 863.95, 0.032, 0.000, -1.024, 12:40:56.153, 1587811256153
64, 1137.34, 442.71, 611.60, 838.60, 0.032, 0.000, -1.024, 12:40:56.153, 1587811256153
65, 1168.33, 476.99, 617.82, 842.38, 0.032, 0.000, -1.024, 12:40:56.153, 1587811256153
66, 1147.49, 456.96, 608.62, 871.10, 0.032, 0.000, -1.040, 12:40:56.153, 1587811256153
67, 1118.18, 429.68, 605.98, 862.04, 0.032, 0.000, -1.040, 12:40:56.167, 1587811256167
68, 1141.98, 448.54, 618.55, 836.48, 0.032, 0.000, -1.040, 12:40:56.167, 1587811256167
69, 1172.48, 480.44, 622.41, 843.74, 0.032, 0.000, -1.040, 12:40:56.183, 1587811256183
70, 1149.21, 462.41, 612.74, 869.93, 0.032, 0.000, -1.040, 12:40:56.184, 1587811256184
71, 1120.19, 429.94, 611.40, 865.45, 0.032, 0.000, -1.040, 12:40:56.184, 1587811256184
72, 1139.77, 450.38, 617.44, 845.17, 0.032, 0.000, -1.040, 12:40:56.184, 1587811256184
73, 1165.63, 488.27, 622.95, 854.11, 0.032, 0.000, -1.040, 12:40:56.198, 1587811256198
74, 1147.78, 469.31, 616.80, 880.86, 0.032, 0.000, -1.040, 12:40:56.198, 1587811256198
75, 1117.12, 431.70, 607.54, 875.81, 0.032, 0.000, -1.040, 12:40:56.214, 1587811256214
76, 1140.54, 456.39, 622.52, 845.65, 0.032, 0.000, -1.040, 12:40:56.214, 1587811256214
77, 1168.87, 492.72, 622.57, 856.21, 0.032, 0.000, -1.040, 12:40:56.215, 1587811256215
78, 1146.63, 472.88, 616.78, 878.95, 0.032, 0.000, -1.040, 12:40:56.215, 1587811256215
79, 1116.57, 433.44, 610.23, 869.40, 0.032, 0.000, -1.040, 12:40:56.227, 1587811256227
80, 1143.75, 457.28, 622.18, 846.54, 0.032, 0.000, -1.040, 12:40:56.227, 1587811256227
81, 1172.28, 492.53, 619.94, 858.49, 0.032, 0.000, -1.040, 12:40:56.243, 1587811256243
82, 1151.73, 471.50, 616.31, 879.11, 0.032, 0.000, -1.040, 12:40:56.243, 1587811256243
83, 1115.78, 437.05, 608.85, 871.71, 0.032, 0.000, -1.040, 12:40:56.244, 1587811256244
84, 1138.48, 458.12, 615.03, 844.61, 0.032, 0.000, -1.040, 12:40:56.244, 1587811256244
85, 1167.27, 486.30, 614.98, 854.87, 0.032, 0.000, -1.040, 12:40:56.258, 1587811256258
86, 1146.28, 468.27, 609.94, 883.50, 0.032, 0.000, -1.024, 12:40:56.258, 1587811256258
87, 1113.05, 430.29, 606.36, 875.88, 0.032, 0.000, -1.024, 12:40:56.273, 1587811256273
88, 1135.70, 456.20, 615.87, 846.43, 0.032, 0.000, -1.024, 12:40:56.273, 1587811256273
89, 1168.22, 492.04, 620.11, 854.82, 0.032, 0.000, -1.024, 12:40:56.274, 1587811256274
90, 1145.33, 464.62, 609.48, 883.04, 0.032, 0.000, -1.024, 12:40:56.274, 1587811256274
91, 1112.22, 429.34, 601.87, 868.16, 0.032, 0.000, -1.024, 12:40:56.288, 1587811256288
92, 1133.57, 447.27, 610.27, 853.30, 0.032, 0.000, -1.024, 12:40:56.288, 1587811256288
93, 1165.85, 491.13, 618.96, 865.16, 0.032, 0.000, -1.024, 12:40:56.303, 1587811256303
94, 1146.75, 475.51, 607.41, 885.36, 0.032, 0.000, -1.024, 12:40:56.303, 1587811256303
95, 1117.36, 437.07, 603.37, 888.22, 0.032, 0.000, -1.024, 12:40:56.304, 1587811256304
96, 1138.55, 461.71, 611.26, 860.32, 0.032, 0.000, -1.024, 12:40:56.304, 1587811256304
97, 1166.47, 493.26, 613.84, 862.33, 0.032, 0.000, -1.024, 12:40:56.317, 1587811256317
98, 1145.98, 471.95, 605.00, 883.98, 0.032, 0.000, -1.024, 12:40:56.317, 1587811256317
99, 1111.04, 433.59, 603.05, 876.66, 0.032, 0.000, -1.024, 12:40:56.333, 1587811256333
100, 1139.40, 457.83, 608.21, 850.25, 0.032, 0.000, -1.024, 12:40:56.333, 1587811256333
101, 1172.45, 491.89, 614.00, 863.97, 0.032, 0.000, -1.024, 12:40:56.334, 1587811256334
102, 1146.43, 473.38, 610.29, 888.16, 0.032, 0.000, -1.024, 12:40:56.334, 1587811256334
103, 1115.68, 431.52, 604.85, 874.09, 0.032, 0.000, -1.024, 12:40:56.347, 1587811256347
104, 1133.48, 457.20, 609.19, 856.77, 0.032, 0.000, -1.024, 12:40:56.347, 1587811256347
105, 1163.29, 487.79, 617.75, 863.80, 0.032, 0.000, -1.024, 12:40:56.364, 1587811256364
106, 1142.27, 468.96, 609.17, 887.84, 0.032, 0.000, -1.024, 12:40:56.364, 1587811256364
107, 1111.07, 431.81, 599.71, 872.77, 0.032, 0.000, -1.024, 12:40:56.365, 1587811256365
108, 1130.91, 449.48, 607.82, 854.15, 0.032, 0.000, -1.024, 12:40:56.365, 1587811256365
109, 1162.28, 486.13, 609.72, 857.20, 0.032, 0.000, -1.024, 12:40:56.377, 1587811256377
110, 1142.08, 465.58, 602.78, 885.57, 0.032, 0.000, -1.024, 12:40:56.377, 1587811256377
111, 1110.04, 433.42, 595.15, 868.88, 0.032, 0.000, -1.024, 12:40:56.394, 1587811256394
112, 1132.45, 455.58, 610.59, 848.37, 0.032, 0.000, -1.024, 12:40:56.394, 1587811256394
113, 1160.43, 481.55, 609.55, 855.24, 0.032, 0.000, -1.024, 12:40:56.394, 1587811256394
114, 1141.57, 458.00, 599.24, 884.18, 0.032, 0.000, -1.024, 12:40:56.395, 1587811256395
115, 1107.88, 426.31, 592.51, 876.08, 0.032, 0.000, -1.024, 12:40:56.407, 1587811256407
116, 1133.29, 447.68, 607.60, 855.12, 0.032, 0.000, -1.024, 12:40:56.407, 1587811256407
117, 1165.99, 483.87, 607.55, 863.34, 0.032, 0.000, -1.024, 12:40:56.423, 1587811256423
118, 1137.55, 464.39, 597.19, 889.76, 0.032, 0.000, -1.024, 12:40:56.423, 1587811256423
119, 1104.48, 419.27, 585.45, 875.36, 0.032, 0.000, -1.024, 12:40:56.424, 1587811256424
120, 1124.86, 441.90, 593.77, 848.21, 0.032, 0.000, -1.024, 12:40:56.424, 1587811256424
121, 1155.60, 475.88, 596.66, 861.04, 0.032, 0.000, -1.024, 12:40:56.437, 1587811256437
122, 1140.50, 460.11, 596.47, 883.24, 0.032, 0.000, -1.024, 12:40:56.437, 1587811256437
123, 1099.34, 415.57, 584.63, 876.54, 0.032, 0.000, -1.024, 12:40:56.453, 1587811256453
124, 1125.44, 441.43, 594.58, 845.17, 0.032, 0.000, -1.024, 12:40:56.453, 1587811256453
125, 1153.30, 476.37, 597.43, 850.95, 0.032, 0.000, -1.024, 12:40:56.454, 1587811256454
126, 1134.72, 451.29, 590.57, 882.16, 0.032, 0.000, -1.040, 12:40:56.454, 1587811256454
127, 1104.36, 421.47, 585.80, 871.62, 0.032, 0.000, -1.040, 12:40:56.468, 1587811256468
128, 1123.84, 440.61, 593.48, 847.85, 0.032, 0.000, -1.040, 12:40:56.468, 1587811256468
129, 1154.31, 472.71, 593.76, 855.34, 0.032, 0.000, -1.040, 12:40:56.499, 1587811256499
130, 1132.11, 451.14, 586.18, 878.11, 0.032, 0.000, -1.040, 12:40:56.499, 1587811256499
131, 1107.46, 419.34, 585.61, 869.09, 0.032, 0.000, -1.040, 12:40:56.500, 1587811256500
132, 1125.62, 441.44, 597.75, 843.80, 0.032, 0.000, -1.040, 12:40:56.500, 1587811256500
133, 1159.55, 480.43, 604.01, 857.69, 0.032, 0.000, -1.040, 12:40:56.502, 1587811256502
134, 1142.37, 456.96, 593.90, 883.17, 0.032, 0.000, -1.040, 12:40:56.502, 1587811256502
135, 1107.95, 419.64, 590.16, 872.31, 0.032, 0.000, -1.040, 12:40:56.502, 1587811256502
136, 1127.34, 445.17, 601.04, 846.55, 0.032, 0.000, -1.040, 12:40:56.502, 1587811256502
137, 1159.05, 484.71, 605.55, 859.69, 0.032, 0.000, -1.040, 12:40:56.513, 1587811256513
138, 1144.04, 459.56, 598.59, 880.71, 0.032, 0.000, -1.040, 12:40:56.513, 1587811256513
139, 1113.95, 430.29, 594.86, 877.01, 0.032, 0.000, -1.040, 12:40:56.527, 1587811256527
140, 1138.28, 458.87, 613.17, 853.33, 0.032, 0.000, -1.040, 12:40:56.527, 1587811256527
141, 1171.75, 490.37, 613.92, 864.39, 0.032, 0.000, -1.040, 12:40:56.543, 1587811256543
142, 1147.17, 465.57, 603.25, 885.21, 0.032, 0.000, -1.040, 12:40:56.544, 1587811256544
143, 1118.68, 429.59, 599.75, 873.33, 0.032, 0.000, -1.040, 12:40:56.558, 1587811256558
144, 1136.69, 451.91, 609.21, 849.59, 0.032, 0.000, -1.040, 12:40:56.558, 1587811256558
145, 1170.94, 489.35, 611.99, 856.56, 0.032, 0.000, -1.040, 12:40:56.559, 1587811256559
146, 1146.99, 465.37, 603.77, 880.11, 0.032, 0.000, -1.040, 12:40:56.559, 1587811256559
147, 1114.63, 428.72, 600.37, 865.30, 0.032, 0.000, -1.040, 12:40:56.573, 1587811256573
148, 1139.55, 451.09, 605.26, 849.77, 0.032, 0.000, -1.040, 12:40:56.573, 1587811256573
149, 1164.49, 489.55, 614.48, 855.10, 0.032, 0.000, -1.040, 12:40:56.574, 1587811256574
150, 1139.37, 457.07, 594.43, 875.27, 0.032, 0.000, -1.040, 12:40:56.574, 1587811256574
151, 1111.81, 421.85, 591.97, 865.27, 0.032, 0.000, -1.040, 12:40:56.587, 1587811256587
152, 1136.85, 447.01, 607.93, 843.87, 0.032, 0.000, -1.040, 12:40:56.587, 1587811256587
153, 1162.73, 484.03, 605.85, 854.45, 0.032, 0.000, -1.040, 12:40:56.619, 1587811256619
154, 1137.78, 464.31, 603.28, 880.69, 0.032, 0.000, -1.040, 12:40:56.619, 1587811256619
155, 1103.67, 420.92, 590.30, 866.21, 0.032, 0.000, -1.040, 12:40:56.620, 1587811256620
156, 1129.97, 443.07, 601.82, 845.38, 0.032, 0.000, -1.040, 12:40:56.620, 1587811256620
157, 1154.73, 475.21, 598.56, 852.94, 0.032, 0.000, -1.040, 12:40:56.621, 1587811256621
158, 1137.65, 447.40, 588.72, 873.85, 0.032, 0.000, -1.040, 12:40:56.621, 1587811256621
159, 1107.03, 415.19, 580.76, 867.06, 0.032, 0.000, -1.040, 12:40:56.621, 1587811256621
160, 1125.80, 428.83, 589.37, 838.32, 0.032, 0.000, -1.040, 12:40:56.621, 1587811256621
161, 1157.12, 468.22, 597.41, 842.66, 0.032, 0.000, -1.040, 12:40:56.632, 1587811256632
162, 1135.66, 446.07, 592.38, 869.41, 0.032, 0.000, -1.040, 12:40:56.632, 1587811256632
