%OpenBCI Raw EEG Data
%Number of channels = 4
%Sample Rate = 200.0 Hz
%First Column = SampleIndex
%Last Column = Timestamp 
%Other Columns = EEG data in microvolts followed by Accel Data (in G) interleaved with Aux Data
0, 1153.37, 447.86, 592.50, 832.54, 0.048, 0.000, -1.040, 12:39:04.417, 1587811144417
1, 1130.93, 411.52, 589.71, 833.29, 0.048, 0.000, -1.040, 12:39:04.447, 1587811144447
2, 1144.95, 437.98, 598.40, 854.05, 0.048, 0.000, -1.040, 12:39:04.447, 1587811144447
3, 1165.13, 458.41, 592.95, 845.05, 0.048, 0.000, -1.040, 12:39:04.447, 1587811144447
4, 1145.60, 438.69, 580.74, 832.67, 0.048, 0.000, -1.040, 12:39:04.447, 1587811144447
5, 1130.02, 416.43, 585.74, 836.32, 0.048, 0.000, -1.040, 12:39:04.448, 1587811144448
6, 1146.00, 435.07, 600.01, 855.87, 0.032, 0.000, -0.528, 12:39:04.448, 1587811144448
7, 1166.85, 469.35, 599.84, 849.54, 0.032, 0.000, -0.528, 12:39:04.461, 1587811144461
8, 1154.00, 446.68, 591.72, 831.03, 0.032, 0.000, -0.528, 12:39:04.461, 1587811144461
9, 1133.63, 420.94, 597.97, 842.92, 0.032, 0.000, -0.528, 12:39:04.477, 1587811144477
10, 1149.42, 443.53, 611.22, 860.05, 0.032, 0.000, -0.528, 12:39:04.477, 1587811144477
11, 1173.07, 466.30, 604.07, 853.69, 0.032, 0.000, -0.528, 12:39:04.478, 1587811144478
12, 1159.17, 447.42, 589.28, 831.51, 0.032, 0.000, -0.528, 12:39:04.478, 1587811144478
13, 1133.58, 425.14, 600.73, 845.79, 0.032, 0.000, -0.528, 12:39:04.508, 1587811144508
14, 1147.90, 444.62, 611.37, 865.23, 0.032, 0.000, -0.528, 12:39:04.508, 1587811144508
15, 1172.70, 469.20, 605.28, 858.67, 0.032, 0.000, -0.528, 12:39:04.509, 1587811144509
16, 1155.51, 446.18, 592.48, 838.46, 0.032, 0.000, -0.528, 12:39:04.509, 1587811144509
17, 1138.15, 424.33, 600.52, 852.02, 0.032, 0.000, -0.528, 12:39:04.510, 1587811144510
18, 1149.17, 441.22, 605.03, 865.31, 0.032, 0.000, -0.528, 12:39:04.510, 1587811144510
19, 1168.55, 464.86, 597.43, 859.02, 0.032, 0.000, -0.528, 12:39:04.522, 1587811144522
20, 1155.56, 442.75, 586.11, 836.96, 0.032, 0.000, -0.528, 12:39:04.522, 1587811144522
21, 1137.66, 419.30, 597.30, 845.72, 0.032, 0.000, -0.528, 12:39:04.536, 1587811144536
22, 1152.43, 447.94, 612.00, 860.94, 0.032, 0.000, -0.528, 12:39:04.536, 1587811144536
23, 1167.72, 470.25, 601.96, 850.57, 0.032, 0.000, -0.528, 12:39:04.537, 1587811144537
24, 1156.08, 445.56, 591.73, 835.12, 0.032, 0.000, -0.528, 12:39:04.537, 1587811144537
25, 1139.30, 428.61, 605.70, 847.75, 0.032, 0.000, -0.528, 12:39:04.550, 1587811144550
26, 1145.03, 444.19, 605.64, 856.76, 0.016, 0.000, -0.768, 12:39:04.550, 1587811144550
27, 1169.19, 476.18, 607.69, 853.73, 0.016, 0.000, -0.768, 12:39:04.566, 1587811144566
28, 1160.62, 451.04, 593.71, 838.61, 0.016, 0.000, -0.768, 12:39:04.566, 1587811144566
29, 1135.30, 430.37, 602.15, 843.03, 0.016, 0.000, -0.768, 12:39:04.567, 1587811144567
30, 1148.87, 446.89, 614.45, 862.76, 0.016, 0.000, -0.768, 12:39:04.567, 1587811144567
31, 1169.92, 474.94, 605.23, 853.19, 0.016, 0.000, -0.768, 12:39:04.581, 1587811144581
32, 1160.51, 451.64, 593.09, 841.59, 0.016, 0.000, -0.768, 12:39:04.581, 1587811144581
33, 1143.44, 431.06, 606.20, 848.80, 0.016, 0.000, -0.768, 12:39:04.596, 1587811144596
34, 1159.40, 450.68, 623.40, 866.07, 0.016, 0.000, -0.768, 12:39:04.596, 1587811144596
35, 1172.80, 470.44, 608.14, 860.69, 0.016, 0.000, -0.768, 12:39:04.597, 1587811144597
36, 1158.77, 455.34, 600.67, 842.30, 0.016, 0.000, -0.768, 12:39:04.597, 1587811144597
37, 1139.44, 432.40, 607.34, 847.95, 0.016, 0.000, -0.768, 12:39:04.611, 1587811144611
38, 1156.05, 453.44, 617.18, 865.94, 0.016, 0.000, -0.768, 12:39:04.611, 1587811144611
39, 1181.22, 476.46, 616.56, 855.88, 0.016, 0.000, -0.768, 12:39:04.626, 1587811144626
40, 1165.57, 454.85, 602.44, 839.60, 0.016, 0.000, -0.768, 12:39:04.626, 1587811144626
41, 1139.29, 430.31, 608.02, 847.80, 0.016, 0.000, -0.768, 12:39:04.627, 1587811144627
42, 1154.44, 456.16, 621.71, 870.17, 0.016, 0.000, -0.768, 12:39:04.627, 1587811144627
43, 1175.47, 475.58, 609.99, 860.00, 0.016, 0.000, -0.768, 12:39:04.640, 1587811144640
44, 1159.51, 452.39, 600.69, 841.25, 0.016, 0.000, -0.768, 12:39:04.640, 1587811144640
45, 1140.03, 432.17, 609.55, 853.11, 0.016, 0.000, -0.768, 12:39:04.656, 1587811144656
46, 1153.41, 453.91, 616.88, 868.08, 0.032, 0.000, -0.896, 12:39:04.656, 1587811144656
47, 1170.47, 473.08, 610.57, 855.85, 0.032, 0.000, -0.896, 12:39:04.657, 1587811144657
48, 1155.16, 460.33, 600.11, 846.04, 0.032, 0.000, -0.896, 12:39:04.657, 1587811144657
49, 1134.82, 431.42, 604.92, 852.49, 0.032, 0.000, -0.896, 12:39:04.670, 1587811144670
50, 1153.06, 455.03, 619.74, 869.52, 0.032, 0.000, -0.896, 12:39:04.670, 1587811144670
51, 1173.13, 479.70, 613.33, 858.55, 0.032, 0.000, -0.896, 12:39:04.687, 1587811144687
52, 1158.60, 457.02, 600.17, 841.56, 0.032, 0.000, -0.896, 12:39:04.687, 1587811144687
53, 1135.61, 432.44, 606.63, 851.16, 0.032, 0.000, -0.896, 12:39:04.688, 1587811144688
54, 1149.85, 450.45, 615.18, 870.50, 0.032, 0.000, -0.896, 12:39:04.688, 1587811144688
55, 1171.41, 469.43, 603.99, 855.21, 0.032, 0.000, -0.896, 12:39:04.700, 1587811144700
56, 1154.24, 452.43, 597.54, 836.02, 0.032, 0.000, -0.896, 12:39:04.700, 1587811144700
57, 1136.11, 427.22, 609.60, 851.86, 0.032, 0.000, -0.896, 12:39:04.716, 1587811144716
58, 1145.85, 450.10, 614.19, 866.24, 0.032, 0.000, -0.896, 12:39:04.716, 1587811144716
59, 1166.94, 468.40, 604.88, 854.81, 0.032, 0.000, -0.896, 12:39:04.717, 1587811144717
60, 1154.78, 453.08, 594.95, 848.82, 0.032, 0.000, -0.896, 12:39:04.717, 1587811144717
61, 1142.33, 434.19, 606.67, 856.65, 0.032, 0.000, -0.896, 12:39:04.731, 1587811144731
62, 1155.78, 455.30, 615.49, 871.84, 0.032, 0.000, -0.896, 12:39:04.731, 1587811144731
63, 1171.24, 476.29, 610.62, 859.76, 0.032, 0.000, -0.896, 12:39:04.746, 1587811144746
64, 1160.95, 454.08, 593.06, 845.33, 0.032, 0.000, -0.896, 12:39:04.746, 1587811144746
65, 1136.96, 427.53, 602.86, 852.41, 0.032, 0.000, -0.896, 12:39:04.747, 1587811144747
66, 1151.01, 444.04, 613.92, 863.96, 0.032, 0.000, -0.960, 12:39:04.747, 1587811144747
67, 1169.07, 468.00, 603.95, 856.83, 0.032, 0.000, -0.960, 12:39:04.761, 1587811144761
68, 1152.77, 443.34, 590.46, 842.26, 0.032, 0.000, -0.960, 12:39:04.761, 1587811144761
69, 1134.53, 430.26, 606.12, 846.71, 0.032, 0.000, -0.960, 12:39:04.776, 1587811144776
70, 1149.07, 442.10, 610.71, 865.84, 0.032, 0.000, -0.960, 12:39:04.776, 1587811144776
71, 1172.92, 468.16, 608.92, 859.29, 0.032, 0.000, -0.960, 12:39:04.777, 1587811144777
72, 1160.49, 451.72, 594.30, 837.41, 0.032, 0.000, -0.960, 12:39:04.777, 1587811144777
73, 1144.34, 430.64, 605.90, 854.04, 0.032, 0.000, -0.960, 12:39:04.791, 1587811144791
74, 1156.71, 451.28, 621.94, 866.70, 0.032, 0.000, -0.960, 12:39:04.791, 1587811144791
75, 1175.43, 472.07, 606.02, 861.49, 0.032, 0.000, -0.960, 12:39:04.806, 1587811144806
76, 1158.63, 448.57, 593.66, 837.78, 0.032, 0.000, -0.960, 12:39:04.806, 1587811144806
77, 1134.87, 420.94, 591.48, 842.82, 0.032, 0.000, -0.960, 12:39:04.807, 1587811144807
78, 1148.99, 450.75, 615.04, 862.86, 0.032, 0.000, -0.960, 12:39:04.807, 1587811144807
79, 1174.41, 466.01, 608.54, 858.22, 0.032, 0.000, -0.960, 12:39:04.820, 1587811144820
80, 1146.58, 428.73, 581.93, 829.25, 0.032, 0.000, -0.960, 12:39:04.820, 1587811144820
81, 1148.63, 435.47, 614.68, 843.48, 0.032, 0.000, -0.960, 12:39:04.836, 1587811144836
82, 1165.67, 467.18, 631.43, 864.09, 0.032, 0.000, -0.960, 12:39:04.836, 1587811144836
83, 1188.14, 487.64, 628.00, 853.29, 0.032, 0.000, -0.960, 12:39:04.838, 1587811144838
84, 1177.46, 461.23, 614.55, 828.66, 0.032, 0.000, -0.960, 12:39:04.838, 1587811144838
85, 1157.52, 437.03, 631.31, 837.56, 0.032, 0.000, -0.960, 12:39:04.850, 1587811144850
86, 1173.60, 452.56, 637.12, 849.50, 0.032, 0.000, -0.992, 12:39:04.850, 1587811144850
87, 1185.11, 483.94, 628.85, 845.56, 0.032, 0.000, -0.992, 12:39:04.867, 1587811144867
88, 1171.76, 450.66, 610.35, 823.95, 0.032, 0.000, -0.992, 12:39:04.867, 1587811144867
89, 1150.89, 429.59, 618.37, 831.71, 0.032, 0.000, -0.992, 12:39:04.868, 1587811144868
90, 1166.32, 453.73, 632.13, 853.17, 0.032, 0.000, -0.992, 12:39:04.868, 1587811144868
91, 1186.12, 479.52, 624.48, 845.24, 0.032, 0.000, -0.992, 12:39:04.881, 1587811144881
92, 1171.45, 455.16, 609.54, 826.20, 0.032, 0.000, -0.992, 12:39:04.881, 1587811144881
93, 1144.32, 431.98, 617.44, 835.91, 0.032, 0.000, -0.992, 12:39:04.897, 1587811144897
94, 1162.28, 452.94, 633.47, 853.37, 0.032, 0.000, -0.992, 12:39:04.897, 1587811144897
95, 1178.51, 468.90, 619.82, 845.60, 0.032, 0.000, -0.992, 12:39:04.898, 1587811144898
96, 1160.26, 450.48, 606.01, 825.46, 0.032, 0.000, -0.992, 12:39:04.898, 1587811144898
97, 1146.23, 428.24, 614.38, 835.33, 0.032, 0.000, -0.992, 12:39:04.910, 1587811144910
98, 1158.38, 449.61, 625.73, 852.36, 0.032, 0.000, -0.992, 12:39:04.910, 1587811144910
99, 1175.18, 475.89, 615.32, 848.04, 0.032, 0.000, -0.992, 12:39:04.926, 1587811144926
100, 1161.18, 448.89, 599.68, 824.17, 0.032, 0.000, -0.992, 12:39:04.926, 1587811144926
101, 1142.26, 430.77, 613.11, 834.95, 0.032, 0.000, -0.992, 12:39:04.927, 1587811144927
102, 1157.90, 455.45, 634.42, 856.95, 0.032, 0.000, -0.992, 12:39:04.927, 1587811144927
103, 1181.12, 475.80, 619.82, 849.44, 0.032, 0.000, -0.992, 12:39:04.941, 1587811144941
104, 1165.76, 451.17, 607.40, 830.34, 0.032, 0.000, -0.992, 12:39:04.941, 1587811144941
105, 1143.65, 432.53, 617.96, 838.08, 0.032, 0.000, -0.992, 12:39:04.956, 1587811144956
106, 1157.44, 452.68, 625.34, 855.04, 0.032, 0.000, -1.024, 12:39:04.956, 1587811144956
107, 1176.49, 479.47, 623.83, 845.70, 0.032, 0.000, -1.024, 12:39:04.957, 1587811144957
108, 1164.99, 458.24, 613.77, 831.41, 0.032, 0.000, -1.024, 12:39:04.957, 1587811144957
109, 1147.09, 429.99, 617.73, 837.17, 0.032, 0.000, -1.024, 12:39:04.971, 1587811144971
110, 1161.49, 454.75, 630.49, 857.31, 0.032, 0.000, -1.024, 12:39:04.971, 1587811144971
111, 1177.64, 477.01, 621.50, 854.90, 0.032, 0.000, -1.024, 12:39:04.987, 1587811144987
112, 1164.56, 455.42, 610.80, 834.92, 0.032, 0.000, -1.024, 12:39:04.987, 1587811144987
113, 1148.23, 434.36, 619.18, 842.55, 0.032, 0.000, -1.024, 12:39:04.988, 1587811144988
114, 1162.23, 459.93, 637.13, 861.37, 0.032, 0.000, -1.024, 12:39:04.988, 1587811144988
115, 1183.79, 483.49, 626.02, 854.92, 0.032, 0.000, -1.024, 12:39:05.001, 1587811145001
116, 1167.53, 465.04, 615.17, 839.44, 0.032, 0.000, -1.024, 12:39:05.001, 1587811145001
117, 1147.99, 437.86, 616.96, 842.90, 0.032, 0.000, -1.024, 12:39:05.017, 1587811145017
118, 1157.80, 454.85, 633.32, 861.22, 0.032, 0.000, -1.024, 12:39:05.017, 1587811145017
119, 1179.17, 474.31, 621.18, 855.56, 0.032, 0.000, -1.024, 12:39:05.018, 1587811145018
120, 1163.91, 450.75, 603.45, 843.73, 0.032, 0.000, -1.024, 12:39:05.018, 1587811145018
121, 1142.90, 435.10, 621.09, 849.94, 0.032, 0.000, -1.024, 12:39:05.030, 1587811145030
122, 1156.26, 449.99, 624.48, 867.83, 0.032, 0.000, -1.024, 12:39:05.030, 1587811145030
123, 1179.20, 475.48, 619.21, 856.60, 0.032, 0.000, -1.024, 12:39:05.062, 1587811145062
124, 1160.81, 455.49, 605.50, 836.35, 0.032, 0.000, -1.024, 12:39:05.062, 1587811145062
125, 1141.35, 422.74, 608.34, 843.62, 0.032, 0.000, -1.024, 12:39:05.063, 1587811145063
126, 1151.50, 447.59, 620.55, 861.25, 0.032, 0.000, -1.024, 12:39:05.063, 1587811145063
127, 1174.44, 465.79, 610.52, 848.28, 0.032, 0.000, -1.024, 12:39:05.064, 1587811145064
128, 1156.96, 449.01, 601.50, 834.67, 0.032, 0.000, -1.024, 12:39:05.064, 1587811145064
129, 1145.98, 421.39, 610.05, 838.12, 0.032, 0.000, -1.024, 12:39:05.065, 1587811145065
130, 1157.32, 444.12, 621.81, 859.16, 0.032, 0.000, -1.024, 12:39:05.065, 1587811145065
131, 1178.54, 470.34, 616.76, 852.35, 0.032, 0.000, -1.024, 12:39:05.075, 1587811145075
132, 1160.77, 449.24, 602.72, 837.22, 0.032, 0.000, -1.024, 12:39:05.075, 1587811145075
133, 1142.41, 427.64, 613.67, 840.73, 0.032, 0.000, -1.024, 12:39:05.091, 1587811145091
134, 1159.70, 453.69, 627.19, 858.57, 0.032, 0.000, -1.024, 12:39:05.091, 1587811145091
135, 1179.21, 470.57, 617.35, 852.20, 0.032, 0.000, -1.024, 12:39:05.123, 1587811145123
136, 1161.48, 450.70, 599.78, 831.83, 0.032, 0.000, -1.024, 12:39:05.123, 1587811145123
137, 1141.77, 427.20, 611.28, 838.65, 0.032, 0.000, -1.024, 12:39:05.124, 1587811145124
138, 1154.80, 445.80, 620.94, 860.94, 0.032, 0.000, -1.024, 12:39:05.124, 1587811145124
139, 1178.27, 477.07, 617.02, 852.06, 0.032, 0.000, -1.024, 12:39:05.124, 1587811145124
140, 1168.97, 446.87, 600.27, 840.28, 0.032, 0.000, -1.024, 12:39:05.124, 1587811145124
141, 1151.27, 430.54, 612.46, 849.12, 0.032, 0.000, -1.024, 12:39:05.125, 1587811145125
142, 1164.45, 444.73, 628.84, 864.36, 0.032, 0.000, -1.024, 12:39:05.125, 1587811145125
143, 1188.73, 478.54, 623.63, 859.45, 0.032, 0.000, -1.024, 12:39:05.135, 1587811145135
144, 1172.74, 457.06, 605.27, 840.55, 0.032, 0.000, -1.024, 12:39:05.135, 1587811145135
145, 1153.15, 435.05, 616.86, 850.58, 0.032, 0.000, -1.024, 12:39:05.151, 1587811145151
146, 1163.62, 453.17, 623.92, 867.50, 0.032, 0.000, -1.024, 12:39:05.151, 1587811145151
147, 1183.45, 475.82, 613.47, 862.05, 0.032, 0.000, -1.024, 12:39:05.183, 1587811145183
148, 1165.63, 452.30, 598.78, 839.34, 0.032, 0.000, -1.024, 12:39:05.183, 1587811145183
149, 1151.55, 432.80, 614.37, 851.62, 0.032, 0.000, -1.024, 12:39:05.183, 1587811145183
150, 1161.63, 451.58, 625.21, 869.93, 0.032, 0.000, -1.024, 12:39:05.183, 1587811145183
151, 1183.58, 475.87, 618.10, 863.76, 0.032, 0.000, -1.024, 12:39:05.184, 1587811145184
152, 1164.29, 453.65, 605.30, 843.67, 0.032, 0.000, -1.024, 12:39:05.184, 1587811145184
153, 1151.62, 432.10, 613.25, 851.29, 0.032, 0.000, -1.024, 12:39:05.185, 1587811145185
154, 1159.34, 447.50, 624.72, 866.13, 0.032, 0.000, -1.024, 12:39:05.185, 1587811145185
155, 1176.08, 469.85, 613.51, 852.82, 0.032, 0.000, -1.024, 12:39:05.196, 1587811145196
156, 1165.85, 451.06, 603.68, 841.30, 0.032, 0.000, -1.024, 12:39:05.196, 1587811145196
157, 1148.82, 442.75, 609.30, 843.24, 0.032, 0.000, -1.024, 12:39:05.210, 1587811145210
158, 1148.85, 437.31, 607.69, 859.49, 0.032, 0.000, -1.024, 12:39:05.210, 1587811145210
159, 1154.47, 451.98, 607.81, 856.60, 0.032, 0.000, -1.024, 12:39:05.226, 1587811145226
160, 1166.99, 455.64, 608.65, 845.96, 0.032, 0.000, -1.024, 12:39:05.226, 1587811145226
161, 1158.06, 441.10, 600.46, 858.02, 0.032, 0.000, -1.024, 12:39:05.227, 1587811145227
162, 1139.89, 427.01, 589.27, 866.21, 0.032, 0.000, -1.024, 12:39:05.227, 1587811145227
163, 1105.71, 381.64, 577.53, 860.10, 0.032, 0.000, -1.024, 12:39:05.240, 1587811145240
164, 1124.33, 402.95, 601.98, 846.00, 0.032, 0.000, -1.024, 12:39:05.240, 1587811145240
165, 1180.94, 469.62, 624.74, 849.92, 0.032, 0.000, -1.024, 12:39:05.256, 1587811145256
166, 1170.57, 464.39, 604.15, 863.56, 0.032, 0.000, -1.040, 12:39:05.256, 1587811145256
167, 1123.50, 407.98, 584.03, 861.25, 0.032, 0.000, -1.040, 12:39:05.257, 1587811145257
168, 1140.36, 428.65, 613.91, 852.61, 0.032, 0.000, -1.040, 12:39:05.257, 1587811145257
169, 1187.91, 483.23, 626.39, 854.74, 0.032, 0.000, -1.040, 12:39:05.271, 1587811145271
170, 1172.26, 472.11, 600.19, 868.67, 0.032, 0.000, -1.040, 12:39:05.271, 1587811145271
171, 1119.15, 405.88, 584.89, 864.85, 0.032, 0.000, -1.040, 12:39:05.286, 1587811145286
172, 1134.76, 420.47, 608.30, 854.50, 0.032, 0.000, -1.040, 12:39:05.286, 1587811145286
173, 1186.25, 482.21, 629.40, 856.17, 0.032, 0.000, -1.040, 12:39:05.287, 1587811145287
174, 1169.20, 466.29, 600.43, 866.49, 0.032, 0.000, -1.040, 12:39:05.287, 1587811145287
175, 1116.41, 398.65, 574.61, 862.76, 0.032, 0.000, -1.040, 12:39:05.302, 1587811145302
176, 1132.72, 416.41, 605.41, 856.04, 0.032, 0.000, -1.040, 12:39:05.302, 1587811145302
177, 1187.12, 481.31, 623.27, 859.54, 0.032, 0.000, -1.040, 12:39:05.316, 1587811145316
178, 1171.92, 469.82, 596.59, 868.31, 0.032, 0.000, -1.040, 12:39:05.316, 1587811145316
179, 1123.73, 407.99, 580.85, 863.62, 0.032, 0.000, -1.040, 12:39:05.317, 1587811145317
180, 1139.55, 427.43, 605.46, 851.29, 0.032, 0.000, -1.040, 12:39:05.317, 1587811145317
181, 1190.61, 490.01, 617.66, 847.03, 0.032, 0.000, -1.040, 12:39:05.331, 1587811145331
182, 1172.11, 468.08, 585.06, 852.79, 0.032, 0.000, -1.040, 12:39:05.331, 1587811145331
183, 1119.61, 407.69, 568.85, 854.81, 0.032, 0.000, -1.040, 12:39:05.346, 1587811145346
184, 1128.96, 417.37, 596.34, 836.90, 0.032, 0.000, -1.040, 12:39:05.346, 1587811145346
185, 1180.45, 488.79, 623.74, 826.96, 0.032, 0.000, -1.040, 12:39:05.347, 1587811145347
186, 1176.78, 488.52, 606.89, 841.06, 0.032, 0.000, -1.040, 12:39:05.347, 1587811145347
187, 1139.79, 434.03, 617.84, 836.86, 0.032, 0.000, -1.040, 12:39:05.360, 1587811145360
188, 1159.59, 459.67, 668.83, 819.92, 0.032, 0.000, -1.040, 12:39:05.360, 1587811145360
189, 1214.23, 534.23, 709.77, 808.71, 0.032, 0.000, -1.040, 12:39:05.377, 1587811145377
190, 1186.28, 523.56, 693.23, 808.18, 0.032, 0.000, -1.040, 12:39:05.377, 1587811145377
191, 1141.12, 466.31, 690.47, 803.19, 0.032, 0.000, -1.040, 12:39:05.378, 1587811145378
192, 1164.96, 505.21, 725.66, 799.64, 0.032, 0.000, -1.040, 12:39:05.378, 1587811145378
193, 1219.54, 575.41, 743.43, 804.11, 0.032, 0.000, -1.040, 12:39:05.391, 1587811145391
194, 1201.64, 560.38, 714.60, 807.55, 0.032, 0.000, -1.040, 12:39:05.391, 1587811145391
195, 1153.10, 493.89, 691.85, 806.53, 0.032, 0.000, -1.040, 12:39:05.406, 1587811145406
196, 1168.82, 523.16, 717.62, 797.89, 0.032, 0.000, -1.040, 12:39:05.406, 1587811145406
197, 1227.60, 578.58, 731.47, 798.12, 0.032, 0.000, -1.040, 12:39:05.407, 1587811145407
198, 1198.30, 550.23, 696.57, 806.56, 0.032, 0.000, -1.040, 12:39:05.407, 1587811145407
199, 1149.13, 480.64, 680.26, 814.55, 0.032, 0.000, -1.040, 12:39:05.422, 1587811145422
200, 1167.82, 497.20, 710.18, 802.09, 0.032, 0.000, -1.040, 12:39:05.422, 1587811145422
0, 1213.47, 556.75, 720.57, 804.76, 0.032, 0.000, -1.040, 12:39:05.422, 1587811145422
1, 1191.90, 529.76, 690.99, 816.81, 0.032, 0.000, -1.040, 12:39:05.435, 1587811145435
2, 1141.16, 477.88, 678.23, 828.92, 0.032, 0.000, -1.040, 12:39:05.435, 1587811145435
3, 1167.70, 500.57, 704.21, 821.51, 0.032, 0.000, -1.040, 12:39:05.451, 1587811145451
4, 1216.86, 554.73, 719.52, 819.81, 0.032, 0.000, -1.040, 12:39:05.451, 1587811145451
5, 1197.24, 533.61, 689.87, 828.25, 0.032, 0.000, -1.040, 12:39:05.452, 1587811145452
6, 1142.45, 472.57, 666.82, 830.39, 0.032, 0.000, -1.040, 12:39:05.452, 1587811145452
7, 1170.38, 502.42, 699.74, 820.83, 0.032, 0.000, -1.040, 12:39:05.465, 1587811145465
8, 1218.33, 554.43, 709.08, 823.91, 0.032, 0.000, -1.040, 12:39:05.465, 1587811145465
9, 1193.95, 529.88, 672.57, 833.54, 0.032, 0.000, -1.040, 12:39:05.482, 1587811145482
10, 1152.47, 470.10, 646.54, 835.32, 0.032, 0.000, -1.040, 12:39:05.482, 1587811145482
11, 1172.83, 494.89, 684.63, 826.32, 0.032, 0.000, -1.040, 12:39:05.482, 1587811145482
12, 1223.41, 539.80, 686.50, 818.46, 0.032, 0.000, -1.040, 12:39:05.482, 1587811145482
13, 1197.79, 511.31, 656.49, 827.93, 0.032, 0.000, -1.040, 12:39:05.495, 1587811145495
14, 1149.30, 465.43, 642.05, 829.76, 0.032, 0.000, -1.040, 12:39:05.495, 1587811145495
15, 1171.96, 482.32, 669.91, 815.58, 0.032, 0.000, -1.040, 12:39:05.511, 1587811145511
16, 1212.54, 529.31, 676.76, 816.92, 0.032, 0.000, -1.040, 12:39:05.511, 1587811145511
17, 1183.49, 497.30, 648.07, 826.74, 0.032, 0.000, -1.040, 12:39:05.514, 1587811145514
18, 1136.09, 438.24, 628.10, 829.48, 0.032, 0.000, -1.040, 12:39:05.514, 1587811145514
19, 1163.15, 460.37, 657.61, 815.55, 0.032, 0.000, -1.040, 12:39:05.525, 1587811145525
20, 1214.79, 509.38, 668.50, 815.52, 0.032, 0.000, -1.040, 12:39:05.525, 1587811145525
21, 1182.63, 487.77, 635.26, 832.06, 0.032, 0.000, -1.040, 12:39:05.558, 1587811145558
22, 1131.64, 433.36, 619.34, 834.99, 0.032, 0.000, -1.040, 12:39:05.558, 1587811145558
23, 1156.28, 443.65, 641.90, 824.14, 0.032, 0.000, -1.040, 12:39:05.559, 1587811145559
24, 1205.08, 501.47, 655.83, 818.34, 0.032, 0.000, -1.040, 12:39:05.559, 1587811145559
25, 1174.36, 470.82, 622.56, 827.39, 0.032, 0.000, -1.040, 12:39:05.560, 1587811145560
26, 1132.89, 423.66, 607.15, 830.05, 0.032, 0.000, -1.040, 12:39:05.560, 1587811145560
27, 1157.94, 436.29, 631.95, 820.48, 0.032, 0.000, -1.040, 12:39:05.560, 1587811145560
28, 1206.80, 498.07, 650.82, 818.46, 0.032, 0.000, -1.040, 12:39:05.560, 1587811145560
29, 1183.32, 473.01, 616.78, 838.09, 0.032, 0.000, -1.040, 12:39:05.571, 1587811145571
30, 1133.29, 422.88, 607.52, 837.75, 0.032, 0.000, -1.040, 12:39:05.571, 1587811145571
31, 1156.81, 434.71, 636.13, 829.10, 0.032, 0.000, -1.040, 12:39:05.585, 1587811145585
32, 1204.53, 490.49, 647.18, 828.80, 0.032, 0.000, -1.040, 12:39:05.585, 1587811145585
33, 1185.58, 467.55, 614.78, 839.08, 0.032, 0.000, -1.040, 12:39:05.617, 1587811145617
34, 1132.43, 406.93, 594.42, 842.90, 0.032, 0.000, -1.040, 12:39:05.617, 1587811145617
35, 1153.62, 423.43, 617.82, 827.02, 0.032, 0.000, -1.040, 12:39:05.618, 1587811145618
36, 1200.26, 472.81, 635.82, 829.69, 0.032, 0.000, -1.040, 12:39:05.618, 1587811145618
37, 1173.54, 451.43, 601.90, 839.18, 0.032, 0.000, -1.040, 12:39:05.619, 1587811145619
38, 1125.24, 394.85, 582.05, 836.58, 0.032, 0.000, -1.040, 12:39:05.619, 1587811145619
39, 1149.53, 412.89, 610.85, 823.14, 0.032, 0.000, -1.040, 12:39:05.619, 1587811145619
40, 1195.57, 462.45, 626.77, 824.11, 0.032, 0.000, -1.040, 12:39:05.619, 1587811145619
41, 1167.54, 443.14, 592.70, 829.72, 0.032, 0.000, -1.040, 12:39:05.631, 1587811145631
42, 1135.58, 408.95, 590.79, 825.18, 0.032, 0.000, -1.040, 12:39:05.631, 1587811145631
43, 1165.82, 434.87, 636.37, 823.02, 0.032, 0.000, -1.040, 12:39:05.645, 1587811145645
44, 1204.66, 478.81, 653.13, 819.47, 0.032, 0.000, -1.040, 12:39:05.645, 1587811145645
45, 1180.10, 468.51, 627.64, 837.24, 0.032, 0.000, -1.040, 12:39:05.661, 1587811145661
46, 1138.80, 434.18, 629.57, 837.40, 0.032, 0.000, -1.040, 12:39:05.661, 1587811145661
47, 1153.21, 441.26, 649.79, 823.76, 0.032, 0.000, -1.040, 12:39:05.676, 1587811145676
48, 1201.00, 504.84, 665.75, 822.40, 0.032, 0.000, -1.040, 12:39:05.676, 1587811145676
49, 1170.59, 484.42, 634.19, 836.30, 0.032, 0.000, -1.040, 12:39:05.677, 1587811145677
50, 1126.06, 427.21, 618.38, 836.15, 0.032, 0.000, -1.040, 12:39:05.677, 1587811145677
51, 1147.52, 445.16, 641.45, 829.42, 0.032, 0.000, -1.040, 12:39:05.691, 1587811145691
52, 1191.42, 490.83, 659.67, 830.80, 0.032, 0.000, -1.040, 12:39:05.691, 1587811145691
53, 1164.27, 473.69, 627.19, 844.25, 0.032, 0.000, -1.040, 12:39:05.692, 1587811145692
54, 1122.58, 423.77, 613.08, 845.43, 0.032, 0.000, -1.040, 12:39:05.692, 1587811145692
55, 1146.51, 443.99, 642.81, 835.94, 0.032, 0.000, -1.040, 12:39:05.706, 1587811145706
56, 1191.60, 490.27, 655.23, 833.23, 0.032, 0.000, -1.040, 12:39:05.706, 1587811145706
57, 1168.56, 475.15, 624.11, 842.16, 0.032, 0.000, -1.040, 12:39:05.721, 1587811145721
58, 1121.28, 423.09, 614.24, 847.93, 0.032, 0.000, -1.040, 12:39:05.721, 1587811145721
59, 1143.12, 432.67, 634.76, 834.76, 0.032, 0.000, -1.040, 12:39:05.737, 1587811145737
60, 1182.64, 484.46, 648.95, 835.21, 0.032, 0.000, -1.040, 12:39:05.737, 1587811145737
61, 1162.83, 470.19, 620.78, 844.52, 0.032, 0.000, -1.040, 12:39:05.739, 1587811145739
62, 1120.31, 421.68, 607.63, 848.18, 0.032, 0.000, -1.040, 12:39:05.739, 1587811145739
63, 1143.83, 424.74, 634.33, 834.18, 0.032, 0.000, -1.040, 12:39:05.751, 1587811145751
64, 1184.26, 482.37, 650.47, 833.30, 0.032, 0.000, -1.040, 12:39:05.751, 1587811145751
65, 1162.73, 472.20, 624.03, 851.24, 0.032, 0.000, -1.040, 12:39:05.752, 1587811145752
66, 1121.28, 422.61, 613.40, 848.90, 0.032, 0.000, -1.040, 12:39:05.752, 1587811145752
67, 1143.72, 438.75, 642.23, 839.85, 0.032, 0.000, -1.040, 12:39:05.766, 1587811145766
68, 1182.12, 490.45, 651.00, 839.50, 0.032, 0.000, -1.040, 12:39:05.766, 1587811145766
69, 1159.79, 473.07, 620.90, 846.66, 0.032, 0.000, -1.040, 12:39:05.781, 1587811145781
70, 1121.01, 417.11, 601.36, 853.76, 0.032, 0.000, -1.040, 12:39:05.781, 1587811145781
71, 1139.86, 431.93, 636.08, 839.82, 0.032, 0.000, -1.040, 12:39:05.782, 1587811145782
72, 1180.77, 482.51, 647.99, 836.06, 0.032, 0.000, -1.040, 12:39:05.782, 1587811145782
73, 1159.83, 467.33, 616.19, 851.90, 0.032, 0.000, -1.040, 12:39:05.796, 1587811145796
74, 1123.52, 422.95, 608.88, 852.54, 0.032, 0.000, -1.040, 12:39:05.796, 1587811145796
75, 1147.31, 438.61, 640.17, 840.52, 0.032, 0.000, -1.040, 12:39:05.812, 1587811145812
76, 1184.98, 489.57, 654.08, 842.64, 0.032, 0.000, -1.040, 12:39:05.812, 1587811145812
77, 1170.75, 476.05, 629.65, 853.64, 0.032, 0.000, -1.040, 12:39:05.813, 1587811145813
78, 1123.22, 428.47, 612.53, 856.24, 0.032, 0.000, -1.040, 12:39:05.813, 1587811145813
79, 1143.16, 438.32, 638.85, 844.11, 0.032, 0.000, -1.040, 12:39:05.826, 1587811145826
80, 1185.57, 488.83, 652.78, 843.85, 0.032, 0.000, -1.040, 12:39:05.826, 1587811145826
81, 1166.40, 474.43, 616.93, 851.91, 0.032, 0.000, -1.040, 12:39:05.841, 1587811145841
82, 1122.11, 418.89, 601.36, 854.29, 0.032, 0.000, -1.040, 12:39:05.841, 1587811145841
83, 1141.75, 433.60, 637.28, 842.56, 0.032, 0.000, -1.040, 12:39:05.842, 1587811145842
84, 1183.43, 485.98, 651.94, 839.85, 0.032, 0.000, -1.040, 12:39:05.842, 1587811145842
85, 1164.14, 475.82, 620.37, 849.10, 0.032, 0.000, -1.040, 12:39:05.856, 1587811145856
86, 1118.47, 415.65, 596.36, 851.94, 0.048, 0.000, -1.040, 12:39:05.856, 1587811145856
87, 1142.75, 436.47, 633.94, 843.98, 0.048, 0.000, -1.040, 12:39:05.871, 1587811145871
88, 1181.84, 483.92, 642.05, 837.33, 0.048, 0.000, -1.040, 12:39:05.871, 1587811145871
89, 1156.32, 476.43, 616.04, 850.79, 0.048, 0.000, -1.040, 12:39:05.872, 1587811145872
90, 1119.26, 419.33, 600.63, 849.47, 0.048, 0.000, -1.040, 12:39:05.872, 1587811145872
91, 1136.41, 428.47, 629.22, 841.00, 0.048, 0.000, -1.040, 12:39:05.886, 1587811145886
92, 1177.12, 485.93, 645.17, 838.32, 0.048, 0.000, -1.040, 12:39:05.886, 1587811145886
93, 1162.13, 475.52, 614.31, 859.23, 0.048, 0.000, -1.040, 12:39:05.901, 1587811145901
94, 1117.89, 421.96, 600.99, 854.47, 0.048, 0.000, -1.040, 12:39:05.901, 1587811145901
95, 1136.13, 430.59, 628.17, 842.88, 0.048, 0.000, -1.040, 12:39:05.902, 1587811145902
96, 1179.73, 482.07, 641.34, 844.95, 0.048, 0.000, -1.040, 12:39:05.902, 1587811145902
97, 1161.44, 474.25, 612.70, 857.15, 0.048, 0.000, -1.040, 12:39:05.916, 1587811145916
98, 1119.78, 424.32, 606.11, 859.98, 0.048, 0.000, -1.040, 12:39:05.916, 1587811145916
99, 1135.54, 432.00, 628.07, 848.12, 0.048, 0.000, -1.040, 12:39:05.931, 1587811145931
100, 1183.18, 486.53, 646.37, 849.17, 0.048, 0.000, -1.040, 12:39:05.931, 1587811145931
101, 1163.80, 476.31, 617.11, 861.91, 0.048, 0.000, -1.040, 12:39:05.932, 1587811145932
102, 1118.18, 418.25, 595.61, 858.83, 0.048, 0.000, -1.040, 12:39:05.932, 1587811145932
103, 1133.31, 435.50, 628.69, 850.80, 0.048, 0.000, -1.040, 12:39:05.945, 1587811145945
104, 1180.85, 491.37, 649.03, 847.70, 0.048, 0.000, -1.040, 12:39:05.945, 1587811145945
105, 1166.76, 482.15, 617.75, 855.53, 0.048, 0.000, -1.040, 12:39:05.962, 1587811145962
106, 1116.87, 428.92, 603.82, 856.40, 0.032, 0.000, -1.040, 12:39:05.962, 1587811145962
107, 1133.08, 443.09, 634.31, 857.58, 0.032, 0.000, -1.040, 12:39:05.962, 1587811145962
108, 1178.25, 498.93, 654.39, 860.93, 0.032, 0.000, -1.040, 12:39:05.962, 1587811145962
109, 1165.31, 488.90, 629.82, 869.20, 0.032, 0.000, -1.040, 12:39:05.976, 1587811145976
110, 1117.51, 435.68, 604.12, 868.09, 0.032, 0.000, -1.040, 12:39:05.976, 1587811145976
111, 1135.13, 452.92, 634.13, 856.60, 0.032, 0.000, -1.040, 12:39:05.992, 1587811145992
112, 1177.14, 500.50, 653.84, 853.99, 0.032, 0.000, -1.040, 12:39:05.992, 1587811145992
113, 1158.92, 488.17, 625.19, 869.47, 0.032, 0.000, -1.040, 12:39:05.993, 1587811145993
114, 1116.66, 443.18, 607.09, 868.18, 0.032, 0.000, -1.040, 12:39:05.993, 1587811145993
115, 1137.42, 459.60, 641.94, 864.79, 0.032, 0.000, -1.040, 12:39:06.006, 1587811146006
116, 1176.23, 507.97, 655.65, 859.09, 0.032, 0.000, -1.040, 12:39:06.006, 1587811146006
117, 1157.59, 496.35, 621.26, 874.15, 0.032, 0.000, -1.040, 12:39:06.021, 1587811146021
118, 1113.63, 443.24, 604.83, 873.86, 0.032, 0.000, -1.040, 12:39:06.021, 1587811146021
119, 1136.74, 457.57, 636.49, 859.63, 0.032, 0.000, -1.040, 12:39:06.022, 1587811146022
120, 1179.39, 509.75, 652.05, 865.69, 0.032, 0.000, -1.040, 12:39:06.022, 1587811146022
121, 1160.91, 497.07, 621.85, 874.60, 0.032, 0.000, -1.040, 12:39:06.036, 1587811146036
122, 1116.07, 434.15, 599.37, 870.62, 0.032, 0.000, -1.040, 12:39:06.036, 1587811146036
123, 1133.28, 452.90, 629.20, 856.00, 0.032, 0.000, -1.040, 12:39:06.051, 1587811146051
124, 1176.92, 504.66, 648.72, 858.96, 0.032, 0.000, -1.040, 12:39:06.051, 1587811146051
125, 1154.51, 493.29, 615.15, 869.32, 0.032, 0.000, -1.040, 12:39:06.052, 1587811146052
126, 1112.96, 441.51, 602.98, 873.02, 0.032, 0.000, -1.040, 12:39:06.052, 1587811146052
127, 1133.95, 453.74, 632.03, 862.10, 0.032, 0.000, -1.040, 12:39:06.066, 1587811146066
128, 1171.55, 504.09, 645.61, 857.01, 0.032, 0.000, -1.040, 12:39:06.066, 1587811146066
129, 1158.08, 489.69, 620.10, 868.23, 0.032, 0.000, -1.040, 12:39:06.081, 1587811146081
130, 1119.72, 442.97, 605.10, 875.74, 0.032, 0.000, -1.040, 12:39:06.081, 1587811146081
131, 1131.84, 456.95, 632.94, 862.42, 0.032, 0.000, -1.040, 12:39:06.082, 1587811146082
132, 1176.02, 499.73, 642.82, 863.58, 0.032, 0.000, -1.040, 12:39:06.082, 1587811146082
133, 1162.96, 492.85, 613.88, 874.46, 0.032, 0.000, -1.040, 12:39:06.096, 1587811146096
134, 1114.29, 439.66, 597.19, 873.48, 0.032, 0.000, -1.040, 12:39:06.096, 1587811146096
135, 1128.23, 449.11, 627.29, 864.98, 0.032, 0.000, -1.040, 12:39:06.112, 1587811146112
136, 1177.01, 501.52, 641.92, 855.95, 0.032, 0.000, -1.040, 12:39:06.112, 1587811146112
137, 1156.99, 487.62, 612.22, 868.85, 0.032, 0.000, -1.040, 12:39:06.113, 1587811146113
138, 1119.04, 437.80, 599.66, 868.80, 0.032, 0.000, -1.040, 12:39:06.113, 1587811146113
139, 1131.33, 443.15, 623.99, 857.15, 0.032, 0.000, -1.040, 12:39:06.126, 1587811146126
140, 1172.97, 495.53, 637.74, 847.53, 0.032, 0.000, -1.040, 12:39:06.126, 1587811146126
141, 1155.65, 478.82, 610.51, 863.35, 0.032, 0.000, -1.040, 12:39:06.141, 1587811146141
142, 1108.98, 429.14, 594.48, 864.31, 0.032, 0.000, -1.040, 12:39:06.141, 1587811146141
143, 1131.93, 438.87, 622.94, 858.10, 0.032, 0.000, -1.040, 12:39:06.143, 1587811146143
144, 1174.00, 490.37, 637.33, 859.38, 0.032, 0.000, -1.040, 12:39:06.143, 1587811146143
145, 1160.52, 480.23, 607.73, 869.05, 0.032, 0.000, -1.040, 12:39:06.172, 1587811146172
146, 1112.14, 422.59, 588.24, 863.89, 0.032, 0.000, -1.040, 12:39:06.172, 1587811146172
147, 1135.33, 442.84, 623.93, 858.83, 0.032, 0.000, -1.040, 12:39:06.172, 1587811146172
148, 1177.85, 491.57, 637.12, 856.06, 0.032, 0.000, -1.040, 12:39:06.172, 1587811146172
149, 1159.91, 476.91, 609.01, 864.98, 0.032, 0.000, -1.040, 12:39:06.173, 1587811146173
150, 1118.32, 427.57, 591.10, 862.87, 0.032, 0.000, -1.040, 12:39:06.173, 1587811146173
151, 1140.24, 438.10, 623.46, 850.66, 0.032, 0.000, -1.040, 12:39:06.186, 1587811146186
152, 1177.29, 491.74, 634.98, 850.65, 0.032, 0.000, -1.040, 12:39:06.186, 1587811146186
153, 1163.56, 473.67, 604.37, 863.14, 0.032, 0.000, -1.040, 12:39:06.201, 1587811146201
154, 1118.34, 422.45, 589.41, 863.34, 0.032, 0.000, -1.040, 12:39:06.201, 1587811146201
155, 1135.39, 437.64, 616.03, 854.80, 0.032, 0.000, -1.040, 12:39:06.202, 1587811146202
156, 1180.11, 486.47, 630.90, 852.53, 0.032, 0.000, -1.040, 12:39:06.202, 1587811146202
157, 1158.63, 468.04, 601.11, 869.71, 0.032, 0.000, -1.040, 12:39:06.232, 1587811146232
158, 1118.74, 415.15, 588.84, 870.55, 0.032, 0.000, -1.040, 12:39:06.232, 1587811146232
159, 1135.67, 432.25, 614.53, 859.14, 0.032, 0.000, -1.040, 12:39:06.232, 1587811146232
160, 1177.19, 486.01, 624.78, 864.52, 0.032, 0.000, -1.040, 12:39:06.232, 1587811146232
161, 1159.31, 464.93, 597.45, 869.38, 0.032, 0.000, -1.040, 12:39:06.233, 1587811146233
162, 1119.07, 423.86, 587.30, 876.94, 0.032, 0.000, -1.040, 12:39:06.233, 1587811146233
163, 1140.50, 430.78, 611.46, 860.89, 0.032, 0.000, -1.040, 12:39:06.246, 1587811146246
164, 1183.53, 486.32, 622.84, 860.98, 0.032, 0.000, -1.040, 12:39:06.246, 1587811146246
165, 1167.23, 467.26, 603.54, 874.23, 0.032, 0.000, -1.040, 12:39:06.261, 1587811146261
166, 1120.41, 421.96, 587.15, 873.32, 0.032, 0.000, -1.040, 12:39:06.261, 1587811146261
167, 1142.05, 438.14, 619.59, 860.72, 0.032, 0.000, -1.040, 12:39:06.262, 1587811146262
168, 1184.78, 482.44, 627.16, 859.98, 0.032, 0.000, -1.040, 12:39:06.262, 1587811146262
169, 1160.52, 464.85, 598.65, 867.95, 0.032, 0.000, -1.040, 12:39:06.275, 1587811146275
170, 1121.44, 419.34, 585.12, 875.79, 0.032, 0.000, -1.040, 12:39:06.275, 1587811146275
171, 1137.55, 430.82, 606.88, 865.54, 0.032, 0.000, -1.040, 12:39:06.291, 1587811146291
172, 1178.65, 477.48, 618.02, 854.44, 0.032, 0.000, -1.040, 12:39:06.291, 1587811146291
173, 1158.91, 463.64, 594.54, 870.50, 0.032, 0.000, -1.040, 12:39:06.292, 1587811146292
174, 1119.41, 410.81, 580.15, 874.15, 0.032, 0.000, -1.040, 12:39:06.292, 1587811146292
175, 1138.78, 420.85, 602.63, 859.06, 0.032, 0.000, -1.040, 12:39:06.306, 1587811146306
176, 1177.66, 472.00, 614.33, 851.99, 0.032, 0.000, -1.040, 12:39:06.306, 1587811146306
177, 1156.63, 450.57, 586.99, 861.78, 0.032, 0.000, -1.040, 12:39:06.323, 1587811146323
178, 1120.56, 408.45, 574.33, 868.03, 0.032, 0.000, -1.040, 12:39:06.323, 1587811146323
179, 1135.81, 419.92, 601.08, 856.22, 0.032, 0.000, -1.040, 12:39:06.324, 1587811146324
180, 1180.61, 476.79, 617.15, 853.58, 0.032, 0.000, -1.040, 12:39:06.324, 1587811146324
181, 1161.98, 452.87, 585.42, 868.98, 0.032, 0.000, -1.040, 12:39:06.336, 1587811146336
182, 1119.85, 410.24, 575.65, 871.67, 0.032, 0.000, -1.040, 12:39:06.336, 1587811146336
183, 1141.62, 422.77, 603.31, 860.91, 0.032, 0.000, -1.040, 12:39:06.351, 1587811146351
184, 1185.32, 473.14, 618.51, 857.76, 0.032, 0.000, -1.040, 12:39:06.351, 1587811146351
185, 1164.79, 457.87, 589.72, 867.27, 0.032, 0.000, -1.040, 12:39:06.352, 1587811146352
186, 1129.14, 408.41, 581.03, 869.93, 0.032, 0.000, -1.040, 12:39:06.352, 1587811146352
187, 1143.47, 424.78, 605.57, 856.57, 0.032, 0.000, -1.040, 12:39:06.366, 1587811146366
188, 1184.26, 473.72, 619.89, 853.51, 0.032, 0.000, -1.040, 12:39:06.366, 1587811146366
189, 1162.87, 456.79, 594.56, 865.83, 0.032, 0.000, -1.040, 12:39:06.381, 1587811146381
190, 1126.09, 410.25, 583.13, 866.22, 0.032, 0.000, -1.040, 12:39:06.381, 1587811146381
191, 1145.87, 431.58, 609.83, 860.96, 0.032, 0.000, -1.040, 12:39:06.382, 1587811146382
192, 1187.76, 477.34, 620.35, 853.83, 0.032, 0.000, -1.040, 12:39:06.382, 1587811146382
193, 1165.07, 459.72, 591.39, 864.40, 0.032, 0.000, -1.040, 12:39:06.396, 1587811146396
194, 1120.56, 408.27, 579.08, 868.54, 0.032, 0.000, -1.040, 12:39:06.396, 1587811146396
195, 1136.45, 423.12, 598.01, 852.69, 0.032, 0.000, -1.040, 12:39:06.411, 1587811146411
196, 1175.18, 470.61, 612.62, 854.32, 0.032, 0.000, -1.040, 12:39:06.411, 1587811146411
197, 1160.38, 455.72, 588.43, 861.88, 0.032, 0.000, -1.040, 12:39:06.412, 1587811146412
198, 1123.40, 404.20, 574.87, 872.06, 0.032, 0.000, -1.040, 12:39:06.412, 1587811146412
199, 1140.03, 419.04, 601.33, 859.43, 0.032, 0.000, -1.040, 12:39:06.426, 1587811146426
200, 1182.33, 464.73, 613.42, 847.85, 0.032, 0.000, -1.040, 12:39:06.426, 1587811146426
0, 1160.81, 450.33, 579.52, 861.16, 0.032, 0.000, -1.040, 12:39:06.427, 1587811146427
1, 1119.19, 402.71, 568.69, 862.71, 0.032, 0.000, -1.040, 12:39:06.441, 1587811146441
2, 1139.54, 421.35, 597.85, 853.68, 0.032, 0.000, -1.040, 12:39:06.441, 1587811146441
3, 1185.67, 468.00, 604.89, 855.10, 0.032, 0.000, -1.040, 12:39:06.456, 1587811146456
4, 1167.84, 450.27, 584.77, 860.75, 0.032, 0.000, -1.040, 12:39:06.456, 1587811146456
5, 1126.93, 405.85, 574.39, 864.45, 0.032, 0.000, -1.040, 12:39:06.457, 1587811146457
6, 1143.14, 423.31, 595.66, 853.76, 0.032, 0.000, -1.040, 12:39:06.457, 1587811146457
7, 1178.60, 464.11, 608.26, 848.23, 0.032, 0.000, -1.040, 12:39:06.472, 1587811146472
8, 1161.76, 449.10, 582.93, 859.03, 0.032, 0.000, -1.040, 12:39:06.472, 1587811146472
9, 1124.57, 403.27, 572.88, 859.26, 0.032, 0.000, -1.040, 12:39:06.486, 1587811146486
10, 1141.85, 417.27, 592.46, 853.84, 0.032, 0.000, -1.040, 12:39:06.486, 1587811146486
11, 1179.83, 466.98, 610.44, 845.80, 0.032, 0.000, -1.040, 12:39:06.487, 1587811146487
12, 1163.57, 454.10, 587.91, 862.45, 0.032, 0.000, -1.040, 12:39:06.487, 1587811146487
13, 1126.45, 405.01, 573.30, 861.99, 0.032, 0.000, -1.040, 12:39:06.501, 1587811146501
14, 1151.99, 429.22, 606.80, 856.45, 0.032, 0.000, -1.040, 12:39:06.501, 1587811146501
15, 1187.85, 477.24, 614.79, 851.30, 0.032, 0.000, -1.040, 12:39:06.516, 1587811146516
16, 1173.00, 457.41, 592.29, 862.21, 0.032, 0.000, -1.040, 12:39:06.516, 1587811146516
17, 1133.81, 414.93, 581.96, 865.26, 0.032, 0.000, -1.040, 12:39:06.517, 1587811146517
18, 1151.72, 432.38, 604.28, 852.38, 0.032, 0.000, -1.040, 12:39:06.517, 1587811146517
19, 1183.90, 468.48, 615.89, 852.94, 0.032, 0.000, -1.040, 12:39:06.531, 1587811146531
20, 1169.47, 453.82, 589.14, 857.38, 0.032, 0.000, -1.040, 12:39:06.531, 1587811146531
21, 1130.98, 409.11, 573.94, 860.76, 0.032, 0.000, -1.040, 12:39:06.546, 1587811146546
22, 1150.68, 424.67, 602.62, 847.21, 0.032, 0.000, -1.040, 12:39:06.546, 1587811146546
23, 1190.60, 473.08, 615.74, 839.26, 0.032, 0.000, -1.040, 12:39:06.547, 1587811146547
24, 1169.32, 457.30, 591.36, 857.77, 0.032, 0.000, -1.040, 12:39:06.547, 1587811146547
25, 1129.54, 412.01, 581.63, 863.08, 0.032, 0.000, -1.040, 12:39:06.561, 1587811146561
26, 1146.56, 425.72, 606.34, 846.63, 0.032, 0.000, -1.024, 12:39:06.561, 1587811146561
27, 1182.81, 462.64, 607.87, 846.06, 0.032, 0.000, -1.024, 12:39:06.577, 1587811146577
28, 1170.09, 451.31, 586.54, 857.97, 0.032, 0.000, -1.024, 12:39:06.577, 1587811146577
29, 1132.64, 407.20, 572.79, 854.46, 0.032, 0.000, -1.024, 12:39:06.578, 1587811146578
30, 1140.13, 400.94, 586.24, 845.78, 0.032, 0.000, -1.024, 12:39:06.578, 1587811146578
31, 1172.94, 440.31, 592.47, 834.85, 0.032, 0.000, -1.024, 12:39:06.590, 1587811146590
32, 1171.74, 457.98, 597.02, 860.50, 0.032, 0.000, -1.024, 12:39:06.590, 1587811146590
33, 1135.32, 400.33, 571.31, 855.22, 0.032, 0.000, -1.024, 12:39:06.607, 1587811146607
34, 1151.21, 409.94, 592.53, 838.93, 0.032, 0.000, -1.024, 12:39:06.607, 1587811146607
35, 1192.26, 447.46, 598.85, 835.03, 0.032, 0.000, -1.024, 12:39:06.608, 1587811146608
36, 1174.86, 422.14, 566.64, 849.20, 0.032, 0.000, -1.024, 12:39:06.608, 1587811146608
37, 1133.38, 368.82, 550.84, 853.36, 0.032, 0.000, -1.024, 12:39:06.622, 1587811146622
38, 1149.37, 383.05, 573.33, 843.98, 0.032, 0.000, -1.024, 12:39:06.622, 1587811146622
39, 1189.39, 425.22, 578.09, 837.01, 0.032, 0.000, -1.024, 12:39:06.636, 1587811146636
40, 1170.84, 407.42, 555.27, 845.67, 0.032, 0.000, -1.024, 12:39:06.636, 1587811146636
41, 1132.86, 365.01, 544.71, 848.96, 0.032, 0.000, -1.024, 12:39:06.637, 1587811146637
42, 1152.16, 391.33, 578.49, 839.82, 0.032, 0.000, -1.024, 12:39:06.637, 1587811146637
43, 1187.58, 437.44, 591.70, 835.02, 0.032, 0.000, -1.024, 12:39:06.651, 1587811146651
44, 1173.31, 428.30, 571.27, 849.07, 0.032, 0.000, -1.024, 12:39:06.651, 1587811146651
45, 1130.31, 374.57, 555.95, 855.86, 0.032, 0.000, -1.024, 12:39:06.666, 1587811146666
46, 1151.75, 397.60, 583.78, 843.92, 0.032, 0.000, -1.024, 12:39:06.666, 1587811146666
47, 1188.58, 443.28, 594.55, 839.73, 0.032, 0.000, -1.024, 12:39:06.667, 1587811146667
48, 1173.24, 427.99, 571.87, 845.65, 0.032, 0.000, -1.024, 12:39:06.667, 1587811146667
49, 1132.86, 390.65, 560.88, 854.38, 0.032, 0.000, -1.024, 12:39:06.681, 1587811146681
50, 1147.95, 405.50, 588.06, 843.01, 0.032, 0.000, -1.024, 12:39:06.681, 1587811146681
51, 1187.62, 453.33, 604.90, 841.71, 0.032, 0.000, -1.024, 12:39:06.696, 1587811146696
52, 1165.66, 435.02, 577.62, 851.59, 0.032, 0.000, -1.024, 12:39:06.696, 1587811146696
53, 1128.11, 392.88, 569.49, 860.40, 0.032, 0.000, -1.024, 12:39:06.697, 1587811146697
54, 1145.17, 407.63, 598.66, 842.40, 0.032, 0.000, -1.024, 12:39:06.697, 1587811146697
55, 1186.41, 453.84, 607.70, 839.25, 0.032, 0.000, -1.024, 12:39:06.727, 1587811146727
56, 1167.13, 434.48, 585.10, 855.86, 0.032, 0.000, -1.024, 12:39:06.727, 1587811146727
57, 1123.82, 393.93, 573.40, 856.13, 0.032, 0.000, -1.024, 12:39:06.727, 1587811146727
58, 1148.59, 412.80, 602.51, 846.61, 0.032, 0.000, -1.024, 12:39:06.727, 1587811146727
59, 1187.91, 459.47, 615.08, 838.47, 0.032, 0.000, -1.024, 12:39:06.728, 1587811146728
60, 1166.67, 443.53, 587.26, 854.78, 0.032, 0.000, -1.024, 12:39:06.728, 1587811146728
61, 1127.62, 399.46, 567.86, 858.37, 0.032, 0.000, -1.024, 12:39:06.741, 1587811146741
62, 1141.78, 411.34, 601.66, 848.78, 0.032, 0.000, -1.024, 12:39:06.741, 1587811146741
63, 1183.88, 456.60, 614.66, 842.63, 0.032, 0.000, -1.024, 12:39:06.757, 1587811146757
64, 1168.35, 448.18, 587.14, 855.96, 0.032, 0.000, -1.024, 12:39:06.757, 1587811146757
65, 1122.47, 397.83, 573.44, 855.89, 0.032, 0.000, -1.024, 12:39:06.758, 1587811146758
66, 1136.45, 414.38, 599.18, 845.31, 0.032, 0.000, -1.040, 12:39:06.758, 1587811146758
67, 1190.76, 469.50, 620.71, 847.25, 0.032, 0.000, -1.040, 12:39:06.788, 1587811146788
68, 1169.23, 454.72, 587.96, 861.34, 0.032, 0.000, -1.040, 12:39:06.788, 1587811146788
69, 1122.73, 399.79, 572.28, 859.97, 0.032, 0.000, -1.040, 12:39:06.789, 1587811146789
70, 1140.76, 410.58, 598.48, 851.01, 0.032, 0.000, -1.040, 12:39:06.789, 1587811146789
71, 1179.45, 455.43, 609.17, 846.68, 0.032, 0.000, -1.040, 12:39:06.789, 1587811146789
72, 1165.16, 453.18, 589.08, 852.67, 0.032, 0.000, -1.040, 12:39:06.789, 1587811146789
73, 1122.11, 402.01, 568.97, 857.93, 0.032, 0.000, -1.040, 12:39:06.801, 1587811146801
74, 1132.56, 405.17, 591.15, 847.12, 0.032, 0.000, -1.040, 12:39:06.801, 1587811146801
75, 1175.92, 464.70, 612.78, 844.29, 0.032, 0.000, -1.040, 12:39:06.816, 1587811146816
76, 1166.90, 454.07, 587.07, 856.98, 0.032, 0.000, -1.040, 12:39:06.816, 1587811146816
77, 1119.98, 403.22, 570.47, 855.64, 0.032, 0.000, -1.040, 12:39:06.817, 1587811146817
78, 1135.31, 415.08, 600.54, 853.42, 0.032, 0.000, -1.040, 12:39:06.817, 1587811146817
79, 1179.98, 469.57, 617.02, 846.45, 0.032, 0.000, -1.040, 12:39:06.831, 1587811146831
80, 1164.44, 456.11, 588.98, 855.66, 0.032, 0.000, -1.040, 12:39:06.831, 1587811146831
81, 1119.56, 403.02, 570.02, 858.54, 0.032, 0.000, -1.040, 12:39:06.846, 1587811146846
82, 1137.76, 416.62, 604.12, 840.32, 0.032, 0.000, -1.040, 12:39:06.846, 1587811146846
83, 1179.34, 467.33, 614.20, 844.04, 0.032, 0.000, -1.040, 12:39:06.847, 1587811146847
84, 1169.37, 453.99, 588.42, 857.16, 0.032, 0.000, -1.040, 12:39:06.847, 1587811146847
85, 1124.70, 407.69, 570.73, 858.68, 0.032, 0.000, -1.040, 12:39:06.862, 1587811146862
86, 1137.25, 416.19, 599.98, 846.49, 0.032, 0.000, -1.024, 12:39:06.862, 1587811146862
87, 1181.13, 463.21, 612.72, 846.89, 0.032, 0.000, -1.024, 12:39:06.876, 1587811146876
88, 1166.15, 455.42, 585.42, 852.39, 0.032, 0.000, -1.024, 12:39:06.876, 1587811146876
89, 1119.69, 406.95, 567.96, 856.30, 0.032, 0.000, -1.024, 12:39:06.891, 1587811146891
90, 1133.17, 405.22, 591.16, 839.88, 0.032, 0.000, -1.024, 12:39:06.891, 1587811146891
91, 1182.61, 459.20, 607.30, 838.94, 0.032, 0.000, -1.024, 12:39:06.892, 1587811146892
92, 1169.24, 457.63, 590.06, 851.80, 0.032, 0.000, -1.024, 12:39:06.892, 1587811146892
93, 1121.97, 411.93, 571.89, 859.97, 0.032, 0.000, -1.024, 12:39:06.906, 1587811146906
94, 1136.48, 417.76, 597.54, 844.25, 0.032, 0.000, -1.024, 12:39:06.906, 1587811146906
95, 1182.28, 464.79, 612.85, 841.18, 0.032, 0.000, -1.024, 12:39:06.907, 1587811146907
96, 1168.55, 454.23, 586.61, 853.06, 0.032, 0.000, -1.024, 12:39:06.907, 1587811146907
97, 1120.32, 395.16, 560.32, 853.11, 0.032, 0.000, -1.024, 12:39:06.921, 1587811146921
98, 1142.21, 406.82, 593.82, 837.68, 0.032, 0.000, -1.024, 12:39:06.921, 1587811146921
99, 1186.73, 466.11, 608.74, 841.71, 0.032, 0.000, -1.024, 12:39:06.937, 1587811146937
100, 1169.48, 456.03, 585.16, 847.43, 0.032, 0.000, -1.024, 12:39:06.937, 1587811146937
101, 1123.34, 402.07, 568.73, 853.40, 0.032, 0.000, -1.024, 12:39:06.937, 1587811146937
102, 1139.09, 414.23, 602.97, 839.65, 0.032, 0.000, -1.024, 12:39:06.937, 1587811146937
103, 1189.50, 474.69, 625.61, 842.24, 0.032, 0.000, -1.024, 12:39:06.951, 1587811146951
104, 1170.93, 461.89, 590.06, 861.68, 0.032, 0.000, -1.024, 12:39:06.951, 1587811146951
105, 1121.12, 406.79, 571.15, 857.00, 0.032, 0.000, -1.024, 12:39:06.967, 1587811146967
106, 1136.27, 418.59, 600.14, 847.42, 0.032, 0.000, -1.040, 12:39:06.967, 1587811146967
107, 1182.13, 470.63, 620.21, 845.14, 0.032, 0.000, -1.040, 12:39:06.967, 1587811146967
108, 1170.44, 463.62, 585.99, 853.08, 0.032, 0.000, -1.040, 12:39:06.967, 1587811146967
109, 1123.22, 404.17, 573.11, 853.07, 0.032, 0.000, -1.040, 12:39:06.981, 1587811146981
110, 1144.97, 428.93, 609.04, 846.55, 0.032, 0.000, -1.040, 12:39:06.981, 1587811146981
111, 1185.94, 475.24, 623.50, 847.52, 0.032, 0.000, -1.040, 12:39:06.997, 1587811146997
112, 1169.02, 460.21, 592.89, 857.96, 0.032, 0.000, -1.040, 12:39:06.997, 1587811146997
113, 1126.38, 411.76, 577.64, 858.08, 0.032, 0.000, -1.040, 12:39:06.997, 1587811146997
114, 1143.02, 423.61, 610.71, 844.93, 0.032, 0.000, -1.040, 12:39:06.997, 1587811146997
115, 1190.70, 480.78, 631.53, 846.19, 0.032, 0.000, -1.040, 12:39:07.010, 1587811147010
116, 1169.25, 468.15, 601.62, 850.11, 0.032, 0.000, -1.040, 12:39:07.010, 1587811147010
117, 1124.03, 411.57, 579.19, 847.37, 0.032, 0.000, -1.040, 12:39:07.026, 1587811147026
118, 1140.54, 423.44, 612.02, 847.62, 0.032, 0.000, -1.040, 12:39:07.026, 1587811147026
119, 1183.24, 470.97, 622.02, 851.17, 0.032, 0.000, -1.040, 12:39:07.027, 1587811147027
120, 1167.11, 461.46, 591.43, 852.47, 0.032, 0.000, -1.040, 12:39:07.027, 1587811147027
121, 1122.86, 405.23, 576.82, 854.60, 0.032, 0.000, -1.040, 12:39:07.041, 1587811147041
122, 1136.93, 418.43, 603.29, 848.58, 0.032, 0.000, -1.040, 12:39:07.041, 1587811147041
123, 1179.30, 469.25, 619.43, 843.03, 0.032, 0.000, -1.040, 12:39:07.056, 1587811147056
124, 1166.83, 465.51, 597.58, 847.31, 0.032, 0.000, -1.040, 12:39:07.056, 1587811147056
125, 1117.73, 402.67, 570.96, 849.25, 0.032, 0.000, -1.040, 12:39:07.057, 1587811147057
126, 1134.87, 421.69, 601.97, 836.39, 0.032, 0.000, -1.040, 12:39:07.057, 1587811147057
127, 1183.29, 477.88, 623.33, 838.25, 0.032, 0.000, -1.040, 12:39:07.071, 1587811147071
128, 1167.67, 464.65, 594.73, 855.58, 0.032, 0.000, -1.040, 12:39:07.071, 1587811147071
129, 1122.48, 407.97, 576.24, 851.00, 0.032, 0.000, -1.040, 12:39:07.086, 1587811147086
130, 1141.12, 421.54, 611.48, 844.07, 0.032, 0.000, -1.040, 12:39:07.086, 1587811147086
131, 1184.26, 482.02, 633.90, 838.97, 0.032, 0.000, -1.040, 12:39:07.087, 1587811147087
132, 1170.46, 470.81, 602.25, 848.85, 0.032, 0.000, -1.040, 12:39:07.087, 1587811147087
133, 1125.66, 417.88, 580.54, 850.34, 0.032, 0.000, -1.040, 12:39:07.101, 1587811147101
134, 1138.15, 420.55, 607.16, 844.47, 0.032, 0.000, -1.040, 12:39:07.101, 1587811147101
135, 1188.66, 482.89, 632.94, 840.48, 0.032, 0.000, -1.040, 12:39:07.116, 1587811147116
136, 1171.37, 470.05, 603.74, 855.38, 0.032, 0.000, -1.040, 12:39:07.116, 1587811147116
137, 1126.38, 417.66, 588.26, 852.44, 0.032, 0.000, -1.040, 12:39:07.117, 1587811147117
138, 1141.84, 422.92, 615.56, 844.83, 0.032, 0.000, -1.040, 12:39:07.117, 1587811147117
139, 1184.45, 480.73, 632.13, 852.97, 0.032, 0.000, -1.040, 12:39:07.131, 1587811147131
140, 1178.02, 472.18, 607.05, 857.76, 0.032, 0.000, -1.040, 12:39:07.131, 1587811147131
141, 1129.67, 425.58, 588.24, 859.26, 0.032, 0.000, -1.040, 12:39:07.147, 1587811147147
142, 1147.33, 436.39, 621.12, 847.21, 0.032, 0.000, -1.040, 12:39:07.147, 1587811147147
143, 1193.60, 487.81, 635.03, 843.94, 0.032, 0.000, -1.040, 12:39:07.147, 1587811147147
144, 1179.86, 475.05, 608.73, 854.89, 0.032, 0.000, -1.040, 12:39:07.147, 1587811147147
145, 1129.23, 420.24, 588.53, 854.76, 0.032, 0.000, -1.040, 12:39:07.161, 1587811147161
146, 1136.10, 416.04, 607.46, 843.60, 0.032, 0.000, -1.040, 12:39:07.161, 1587811147161
147, 1187.68, 482.65, 633.12, 849.42, 0.032, 0.000, -1.040, 12:39:07.177, 1587811147177
148, 1177.35, 476.20, 608.72, 859.13, 0.032, 0.000, -1.040, 12:39:07.177, 1587811147177
149, 1127.83, 418.96, 591.02, 861.92, 0.032, 0.000, -1.040, 12:39:07.178, 1587811147178
150, 1147.71, 428.53, 617.90, 855.20, 0.032, 0.000, -1.040, 12:39:07.178, 1587811147178
151, 1190.82, 479.38, 639.34, 846.33, 0.032, 0.000, -1.040, 12:39:07.190, 1587811147190
152, 1183.28, 479.04, 611.10, 860.11, 0.032, 0.000, -1.040, 12:39:07.190, 1587811147190
153, 1131.95, 420.89, 585.84, 853.43, 0.032, 0.000, -1.040, 12:39:07.223, 1587811147223
154, 1147.24, 428.81, 617.32, 846.27, 0.032, 0.000, -1.040, 12:39:07.223, 1587811147223
155, 1184.54, 481.10, 629.75, 843.78, 0.032, 0.000, -1.040, 12:39:07.223, 1587811147223
156, 1176.76, 482.92, 612.03, 855.22, 0.032, 0.000, -1.040, 12:39:07.223, 1587811147223
157, 1130.15, 425.34, 598.63, 855.14, 0.032, 0.000, -1.040, 12:39:07.224, 1587811147224
158, 1148.02, 433.56, 620.44, 850.04, 0.032, 0.000, -1.040, 12:39:07.224, 1587811147224
159, 1191.33, 489.00, 638.01, 850.75, 0.032, 0.000, -1.040, 12:39:07.225, 1587811147225
160, 1170.88, 478.25, 603.83, 853.01, 0.032, 0.000, -1.040, 12:39:07.225, 1587811147225
161, 1128.20, 422.54, 591.67, 857.00, 0.032, 0.000, -1.040, 12:39:07.236, 1587811147236
162, 1148.26, 428.15, 622.68, 844.62, 0.032, 0.000, -1.040, 12:39:07.236, 1587811147236
163, 1189.16, 484.08, 634.87, 842.17, 0.032, 0.000, -1.040, 12:39:07.251, 1587811147251
164, 1173.56, 476.35, 604.43, 854.84, 0.032, 0.000, -1.040, 12:39:07.251, 1587811147251
165, 1124.82, 418.26, 583.38, 853.56, 0.032, 0.000, -1.040, 12:39:07.283, 1587811147283
166, 1141.41, 429.83, 614.81, 845.00, 0.032, 0.000, -1.040, 12:39:07.283, 1587811147283
167, 1187.24, 481.98, 630.50, 841.77, 0.032, 0.000, -1.040, 12:39:07.284, 1587811147284
168, 1173.17, 482.39, 608.49, 851.64, 0.032, 0.000, -1.040, 12:39:07.284, 1587811147284
169, 1128.45, 424.01, 588.84, 858.31, 0.032, 0.000, -1.040, 12:39:07.285, 1587811147285
170, 1145.33, 439.72, 623.53, 846.31, 0.032, 0.000, -1.040, 12:39:07.285, 1587811147285
171, 1187.87, 488.98, 636.10, 841.93, 0.032, 0.000, -1.040, 12:39:07.285, 1587811147285
172, 1164.20, 477.00, 601.64, 850.71, 0.032, 0.000, -1.040, 12:39:07.285, 1587811147285
173, 1121.69, 415.34, 582.46, 852.14, 0.032, 0.000, -1.040, 12:39:07.296, 1587811147296
174, 1140.36, 426.92, 610.99, 842.10, 0.032, 0.000, -1.040, 12:39:07.296, 1587811147296
175, 1187.09, 490.24, 634.90, 842.38, 0.032, 0.000, -1.040, 12:39:07.310, 1587811147310
176, 1173.46, 480.21, 603.49, 857.47, 0.032, 0.000, -1.040, 12:39:07.310, 1587811147310
177, 1125.95, 421.66, 585.61, 857.33, 0.032, 0.000, -1.040, 12:39:07.326, 1587811147326
178, 1137.63, 425.65, 609.60, 850.46, 0.032, 0.000, -1.040, 12:39:07.326, 1587811147326
179, 1188.17, 471.48, 619.69, 841.49, 0.032, 0.000, -1.040, 12:39:07.327, 1587811147327
180, 1164.60, 450.41, 588.54, 846.27, 0.032, 0.000, -1.040, 12:39:07.327, 1587811147327
181, 1126.05, 410.77, 582.41, 848.75, 0.032, 0.000, -1.040, 12:39:07.341, 1587811147341
182, 1142.43, 431.86, 612.22, 837.71, 0.032, 0.000, -1.040, 12:39:07.341, 1587811147341
183, 1190.63, 481.98, 633.51, 835.23, 0.032, 0.000, -1.040, 12:39:07.357, 1587811147357
184, 1179.38, 465.84, 601.32, 846.55, 0.032, 0.000, -1.040, 12:39:07.357, 1587811147357
185, 1128.87, 409.10, 579.17, 850.79, 0.032, 0.000, -1.040, 12:39:07.358, 1587811147358
186, 1146.73, 423.15, 606.76, 837.39, 0.048, 0.000, -1.040, 12:39:07.358, 1587811147358
187, 1187.45, 470.78, 623.15, 834.97, 0.048, 0.000, -1.040, 12:39:07.370, 1587811147370
188, 1175.31, 473.94, 604.64, 847.80, 0.048, 0.000, -1.040, 12:39:07.370, 1587811147370
189, 1120.65, 413.80, 578.12, 849.27, 0.048, 0.000, -1.040, 12:39:07.403, 1587811147403
190, 1140.05, 420.64, 612.92, 835.28, 0.048, 0.000, -1.040, 12:39:07.403, 1587811147403
191, 1185.13, 476.87, 627.34, 836.44, 0.048, 0.000, -1.040, 12:39:07.403, 1587811147403
192, 1171.99, 468.35, 602.31, 844.97, 0.048, 0.000, -1.040, 12:39:07.403, 1587811147403
193, 1127.56, 419.11, 587.02, 849.06, 0.048, 0.000, -1.040, 12:39:07.404, 1587811147404
194, 1142.77, 433.91, 616.82, 841.30, 0.048, 0.000, -1.040, 12:39:07.404, 1587811147404
195, 1194.02, 481.80, 632.51, 838.39, 0.048, 0.000, -1.040, 12:39:07.405, 1587811147405
196, 1174.89, 473.71, 603.78, 849.04, 0.048, 0.000, -1.040, 12:39:07.405, 1587811147405
197, 1127.85, 415.52, 584.83, 852.66, 0.048, 0.000, -1.040, 12:39:07.415, 1587811147415
198, 1139.65, 426.00, 612.48, 838.33, 0.048, 0.000, -1.040, 12:39:07.415, 1587811147415
199, 1184.78, 472.40, 626.74, 839.98, 0.048, 0.000, -1.040, 12:39:07.431, 1587811147431
200, 1176.22, 469.03, 602.35, 845.24, 0.048, 0.000, -1.040, 12:39:07.431, 1587811147431
0, 1128.03, 414.71, 581.32, 851.49, 0.048, 0.000, -1.040, 12:39:07.432, 1587811147432
1, 1141.52, 421.50, 612.77, 836.87, 0.048, 0.000, -1.040, 12:39:07.445, 1587811147445
2, 1179.60, 476.94, 623.95, 836.84, 0.048, 0.000, -1.040, 12:39:07.445, 1587811147445
3, 1172.07, 467.60, 598.05, 852.14, 0.048, 0.000, -1.040, 12:39:07.462, 1587811147462
4, 1122.47, 413.03, 580.86, 854.98, 0.048, 0.000, -1.040, 12:39:07.462, 1587811147462
5, 1138.12, 427.26, 610.01, 844.05, 0.048, 0.000, -1.040, 12:39:07.463, 1587811147463
6, 1186.11, 474.73, 627.69, 844.60, 0.032, 0.000, -1.024, 12:39:07.463, 1587811147463
7, 1169.78, 476.26, 602.81, 847.19, 0.032, 0.000, -1.024, 12:39:07.475, 1587811147475
8, 1120.27, 413.26, 580.26, 852.69, 0.032, 0.000, -1.024, 12:39:07.475, 1587811147475
9, 1139.93, 419.67, 609.68, 842.85, 0.032, 0.000, -1.024, 12:39:07.491, 1587811147491
10, 1184.45, 477.71, 626.88, 841.94, 0.032, 0.000, -1.024, 12:39:07.491, 1587811147491
11, 1171.03, 475.14, 609.06, 851.06, 0.032, 0.000, -1.024, 12:39:07.492, 1587811147492
12, 1124.03, 418.49, 584.27, 854.11, 0.032, 0.000, -1.024, 12:39:07.492, 1587811147492
13, 1136.30, 424.19, 611.90, 839.79, 0.032, 0.000, -1.024, 12:39:07.506, 1587811147506
14, 1181.05, 471.79, 624.23, 842.18, 0.032, 0.000, -1.024, 12:39:07.506, 1587811147506
15, 1167.55, 470.71, 599.57, 853.80, 0.032, 0.000, -1.024, 12:39:07.521, 1587811147521
16, 1121.85, 413.05, 580.32, 857.84, 0.032, 0.000, -1.024, 12:39:07.521, 1587811147521
17, 1135.92, 422.84, 613.99, 845.18, 0.032, 0.000, -1.024, 12:39:07.522, 1587811147522
18, 1183.78, 478.44, 632.16, 843.09, 0.032, 0.000, -1.024, 12:39:07.522, 1587811147522
19, 1165.90, 468.74, 603.63, 857.96, 0.032, 0.000, -1.024, 12:39:07.536, 1587811147536
20, 1120.13, 411.82, 585.57, 854.12, 0.032, 0.000, -1.024, 12:39:07.536, 1587811147536
21, 1137.25, 421.24, 616.17, 839.10, 0.032, 0.000, -1.024, 12:39:07.551, 1587811147551
22, 1177.63, 472.10, 630.69, 838.83, 0.032, 0.000, -1.024, 12:39:07.551, 1587811147551
23, 1164.38, 464.40, 597.85, 851.57, 0.032, 0.000, -1.024, 12:39:07.552, 1587811147552
24, 1118.64, 415.02, 582.55, 854.58, 0.032, 0.000, -1.024, 12:39:07.552, 1587811147552
25, 1136.15, 426.49, 617.26, 844.14, 0.032, 0.000, -1.024, 12:39:07.566, 1587811147566
26, 1180.18, 476.08, 631.05, 846.28, 0.032, 0.000, -1.024, 12:39:07.566, 1587811147566
27, 1164.44, 464.25, 603.33, 857.57, 0.032, 0.000, -1.024, 12:39:07.581, 1587811147581
28, 1120.45, 410.03, 587.39, 857.23, 0.032, 0.000, -1.024, 12:39:07.581, 1587811147581
29, 1132.93, 416.09, 612.83, 841.46, 0.032, 0.000, -1.024, 12:39:07.582, 1587811147582
30, 1179.47, 473.55, 630.49, 840.32, 0.032, 0.000, -1.024, 12:39:07.582, 1587811147582
31, 1165.34, 464.03, 602.80, 855.13, 0.032, 0.000, -1.024, 12:39:07.596, 1587811147596
32, 1118.64, 412.87, 589.23, 856.14, 0.032, 0.000, -1.024, 12:39:07.596, 1587811147596
33, 1137.16, 421.70, 615.96, 850.11, 0.032, 0.000, -1.024, 12:39:07.612, 1587811147612
34, 1176.61, 469.41, 622.04, 843.51, 0.032, 0.000, -1.024, 12:39:07.612, 1587811147612
35, 1169.45, 468.34, 603.12, 854.66, 0.032, 0.000, -1.024, 12:39:07.613, 1587811147613
36, 1118.51, 416.78, 584.82, 860.28, 0.032, 0.000, -1.024, 12:39:07.613, 1587811147613
37, 1141.43, 423.82, 614.38, 848.76, 0.032, 0.000, -1.024, 12:39:07.626, 1587811147626
38, 1184.52, 478.69, 628.28, 847.89, 0.032, 0.000, -1.024, 12:39:07.626, 1587811147626
39, 1166.33, 470.79, 600.56, 861.44, 0.032, 0.000, -1.024, 12:39:07.641, 1587811147641
40, 1122.64, 413.50, 577.98, 859.49, 0.032, 0.000, -1.024, 12:39:07.641, 1587811147641
41, 1136.06, 421.21, 611.99, 845.63, 0.032, 0.000, -1.024, 12:39:07.642, 1587811147642
42, 1176.12, 477.71, 625.65, 845.99, 0.032, 0.000, -1.024, 12:39:07.642, 1587811147642
43, 1163.68, 469.35, 603.64, 854.31, 0.032, 0.000, -1.024, 12:39:07.672, 1587811147672
44, 1122.99, 417.85, 585.51, 858.09, 0.032, 0.000, -1.024, 12:39:07.672, 1587811147672
45, 1141.45, 428.20, 617.22, 849.66, 0.032, 0.000, -1.024, 12:39:07.672, 1587811147672
46, 1187.70, 483.10, 631.66, 844.52, 0.032, 0.000, -1.024, 12:39:07.672, 1587811147672
47, 1167.68, 473.84, 601.99, 854.11, 0.032, 0.000, -1.024, 12:39:07.673, 1587811147673
48, 1120.42, 417.74, 587.08, 853.19, 0.032, 0.000, -1.024, 12:39:07.673, 1587811147673
49, 1132.64, 421.85, 610.34, 840.58, 0.032, 0.000, -1.024, 12:39:07.686, 1587811147686
50, 1182.09, 470.49, 625.81, 840.56, 0.032, 0.000, -1.024, 12:39:07.686, 1587811147686
51, 1168.60, 465.17, 597.21, 852.53, 0.032, 0.000, -1.024, 12:39:07.701, 1587811147701
52, 1121.86, 418.42, 584.81, 852.67, 0.032, 0.000, -1.024, 12:39:07.701, 1587811147701
53, 1132.63, 420.99, 608.66, 837.21, 0.032, 0.000, -1.024, 12:39:07.717, 1587811147717
54, 1181.00, 475.81, 629.12, 838.78, 0.032, 0.000, -1.024, 12:39:07.717, 1587811147717
55, 1168.18, 469.47, 600.19, 847.71, 0.032, 0.000, -1.024, 12:39:07.718, 1587811147718
56, 1122.39, 416.58, 583.94, 851.59, 0.032, 0.000, -1.024, 12:39:07.718, 1587811147718
57, 1136.89, 420.55, 603.65, 843.02, 0.032, 0.000, -1.024, 12:39:07.731, 1587811147731
58, 1183.37, 480.62, 629.22, 839.39, 0.032, 0.000, -1.024, 12:39:07.731, 1587811147731
59, 1171.55, 474.31, 599.72, 852.84, 0.032, 0.000, -1.024, 12:39:07.732, 1587811147732
60, 1124.04, 424.70, 586.24, 856.34, 0.032, 0.000, -1.024, 12:39:07.732, 1587811147732
61, 1143.23, 430.92, 614.89, 841.95, 0.032, 0.000, -1.024, 12:39:07.746, 1587811147746
62, 1183.00, 478.44, 627.35, 842.22, 0.032, 0.000, -1.024, 12:39:07.746, 1587811147746
63, 1173.68, 472.27, 603.68, 852.65, 0.032, 0.000, -1.024, 12:39:07.761, 1587811147761
64, 1126.79, 422.20, 583.58, 857.19, 0.032, 0.000, -1.024, 12:39:07.761, 1587811147761
65, 1144.98, 434.91, 618.74, 840.05, 0.032, 0.000, -1.024, 12:39:07.776, 1587811147776
66, 1190.09, 492.34, 639.78, 846.49, 0.048, 0.000, -1.024, 12:39:07.776, 1587811147776
67, 1178.20, 483.07, 607.96, 861.07, 0.048, 0.000, -1.024, 12:39:07.777, 1587811147777
68, 1132.75, 429.14, 590.17, 860.23, 0.048, 0.000, -1.024, 12:39:07.777, 1587811147777
69, 1143.59, 432.66, 613.97, 847.04, 0.048, 0.000, -1.024, 12:39:07.791, 1587811147791
70, 1189.07, 489.30, 632.06, 842.42, 0.048, 0.000, -1.024, 12:39:07.791, 1587811147791
71, 1175.28, 484.15, 608.81, 856.81, 0.048, 0.000, -1.024, 12:39:07.792, 1587811147792
72, 1131.42, 430.72, 587.89, 859.64, 0.048, 0.000, -1.024, 12:39:07.792, 1587811147792
73, 1146.52, 438.41, 617.85, 846.34, 0.048, 0.000, -1.024, 12:39:07.806, 1587811147806
74, 1190.28, 495.76, 637.72, 848.70, 0.048, 0.000, -1.024, 12:39:07.806, 1587811147806
75, 1176.74, 482.57, 605.01, 851.82, 0.048, 0.000, -1.024, 12:39:07.838, 1587811147838
76, 1125.97, 435.41, 589.41, 856.22, 0.048, 0.000, -1.024, 12:39:07.838, 1587811147838
77, 1146.95, 440.06, 614.29, 841.61, 0.048, 0.000, -1.024, 12:39:07.838, 1587811147838
78, 1187.01, 488.48, 636.59, 843.19, 0.048, 0.000, -1.024, 12:39:07.838, 1587811147838
79, 1175.46, 482.49, 603.17, 853.92, 0.048, 0.000, -1.024, 12:39:07.839, 1587811147839
80, 1128.62, 430.06, 581.61, 857.18, 0.048, 0.000, -1.024, 12:39:07.839, 1587811147839
81, 1146.25, 436.79, 612.13, 844.28, 0.048, 0.000, -1.024, 12:39:07.840, 1587811147840
82, 1185.62, 484.15, 624.07, 838.97, 0.048, 0.000, -1.024, 12:39:07.840, 1587811147840
83, 1167.82, 469.72, 594.98, 846.76, 0.048, 0.000, -1.024, 12:39:07.851, 1587811147851
84, 1124.52, 418.44, 578.28, 845.05, 0.048, 0.000, -1.024, 12:39:07.851, 1587811147851
85, 1137.59, 426.28, 600.67, 835.49, 0.048, 0.000, -1.024, 12:39:07.866, 1587811147866
86, 1185.45, 479.16, 622.87, 834.11, 0.032, 0.000, -1.040, 12:39:07.866, 1587811147866
87, 1167.01, 473.16, 598.20, 844.54, 0.032, 0.000, -1.040, 12:39:07.881, 1587811147881
88, 1124.79, 417.77, 579.57, 847.16, 0.032, 0.000, -1.040, 12:39:07.881, 1587811147881
89, 1140.29, 423.75, 605.12, 840.57, 0.032, 0.000, -1.040, 12:39:07.897, 1587811147897
90, 1187.03, 474.31, 624.56, 837.01, 0.032, 0.000, -1.040, 12:39:07.897, 1587811147897
91, 1167.97, 463.96, 599.24, 850.58, 0.032, 0.000, -1.040, 12:39:07.898, 1587811147898
92, 1122.06, 413.20, 577.83, 848.39, 0.032, 0.000, -1.040, 12:39:07.898, 1587811147898
93, 1137.38, 413.42, 601.89, 834.93, 0.032, 0.000, -1.040, 12:39:07.911, 1587811147911
94, 1180.46, 468.62, 622.72, 830.43, 0.032, 0.000, -1.040, 12:39:07.911, 1587811147911
95, 1164.80, 459.56, 594.18, 843.79, 0.032, 0.000, -1.040, 12:39:07.912, 1587811147912
96, 1126.13, 411.98, 576.27, 846.93, 0.032, 0.000, -1.040, 12:39:07.912, 1587811147912
97, 1136.56, 416.40, 600.90, 839.45, 0.032, 0.000, -1.040, 12:39:07.926, 1587811147926
98, 1182.29, 471.15, 624.25, 843.86, 0.032, 0.000, -1.040, 12:39:07.926, 1587811147926
99, 1164.23, 466.31, 596.35, 855.39, 0.032, 0.000, -1.040, 12:39:07.941, 1587811147941
100, 1122.93, 410.80, 581.80, 856.07, 0.032, 0.000, -1.040, 12:39:07.941, 1587811147941
101, 1142.12, 420.08, 611.28, 840.40, 0.032, 0.000, -1.040, 12:39:07.942, 1587811147942
102, 1186.23, 465.96, 624.36, 840.73, 0.032, 0.000, -1.040, 12:39:07.942, 1587811147942
103, 1167.18, 456.45, 596.51, 851.24, 0.032, 0.000, -1.040, 12:39:07.955, 1587811147955
104, 1124.48, 408.14, 580.34, 854.50, 0.032, 0.000, -1.040, 12:39:07.955, 1587811147955
105, 1142.56, 416.49, 604.72, 843.02, 0.032, 0.000, -1.040, 12:39:07.971, 1587811147971
106, 1182.68, 461.62, 620.17, 846.63, 0.032, 0.000, -1.040, 12:39:07.971, 1587811147971
107, 1170.81, 462.77, 599.32, 852.84, 0.032, 0.000, -1.040, 12:39:07.973, 1587811147973
108, 1122.70, 409.18, 582.09, 853.84, 0.032, 0.000, -1.040, 12:39:07.973, 1587811147973
109, 1136.66, 417.29, 606.99, 843.73, 0.032, 0.000, -1.040, 12:39:07.986, 1587811147986
110, 1184.18, 463.95, 617.61, 842.97, 0.032, 0.000, -1.040, 12:39:07.986, 1587811147986
111, 1170.51, 460.65, 600.21, 851.81, 0.032, 0.000, -1.040, 12:39:08.002, 1587811148002
112, 1118.95, 407.57, 576.45, 852.58, 0.032, 0.000, -1.040, 12:39:08.002, 1587811148002
113, 1136.97, 407.87, 606.19, 841.05, 0.032, 0.000, -1.040, 12:39:08.003, 1587811148003
114, 1180.69, 465.97, 615.62, 837.69, 0.032, 0.000, -1.040, 12:39:08.003, 1587811148003
115, 1165.13, 448.74, 587.00, 848.09, 0.032, 0.000, -1.040, 12:39:08.016, 1587811148016
116, 1120.19, 403.42, 577.38, 851.85, 0.032, 0.000, -1.040, 12:39:08.016, 1587811148016
117, 1137.15, 413.74, 607.36, 839.28, 0.032, 0.000, -1.040, 12:39:08.031, 1587811148031
118, 1181.27, 467.26, 622.73, 832.76, 0.032, 0.000, -1.040, 12:39:08.031, 1587811148031
119, 1157.29, 453.38, 588.77, 846.76, 0.032, 0.000, -1.040, 12:39:08.032, 1587811148032
120, 1112.04, 398.95, 567.60, 847.67, 0.032, 0.000, -1.040, 12:39:08.032, 1587811148032
121, 1120.71, 400.50, 590.05, 836.74, 0.032, 0.000, -1.040, 12:39:08.045, 1587811148045
122, 1168.79, 445.09, 607.16, 832.28, 0.032, 0.000, -1.040, 12:39:08.045, 1587811148045
123, 1154.54, 441.53, 580.14, 841.19, 0.032, 0.000, -1.040, 12:39:08.061, 1587811148061
124, 1114.23, 396.88, 563.89, 842.28, 0.032, 0.000, -1.040, 12:39:08.061, 1587811148061
125, 1132.32, 410.60, 598.64, 832.65, 0.032, 0.000, -1.040, 12:39:08.062, 1587811148062
126, 1183.52, 470.03, 622.14, 831.62, 0.032, 0.000, -1.040, 12:39:08.062, 1587811148062
127, 1166.95, 470.29, 594.18, 846.66, 0.032, 0.000, -1.040, 12:39:08.075, 1587811148075
128, 1119.87, 415.50, 580.88, 856.78, 0.032, 0.000, -1.040, 12:39:08.075, 1587811148075
129, 1138.71, 425.25, 614.02, 844.59, 0.032, 0.000, -1.040, 12:39:08.091, 1587811148091
130, 1186.32, 474.95, 627.25, 839.09, 0.032, 0.000, -1.040, 12:39:08.091, 1587811148091
131, 1168.43, 469.15, 600.29, 847.03, 0.032, 0.000, -1.040, 12:39:08.092, 1587811148092
132, 1122.42, 416.19, 579.24, 855.29, 0.032, 0.000, -1.040, 12:39:08.092, 1587811148092
133, 1138.98, 423.50, 607.07, 843.00, 0.032, 0.000, -1.040, 12:39:08.106, 1587811148106
134, 1184.32, 478.20, 634.18, 845.65, 0.032, 0.000, -1.040, 12:39:08.106, 1587811148106
135, 1168.51, 469.20, 605.51, 861.42, 0.032, 0.000, -1.040, 12:39:08.121, 1587811148121
136, 1119.22, 413.54, 585.97, 863.14, 0.032, 0.000, -1.040, 12:39:08.121, 1587811148121
137, 1138.52, 423.87, 612.69, 848.83, 0.032, 0.000, -1.040, 12:39:08.122, 1587811148122
138, 1180.93, 472.82, 626.37, 843.14, 0.032, 0.000, -1.040, 12:39:08.122, 1587811148122
139, 1165.15, 467.80, 601.49, 851.86, 0.032, 0.000, -1.040, 12:39:08.136, 1587811148136
140, 1118.49, 405.74, 575.47, 850.32, 0.032, 0.000, -1.040, 12:39:08.136, 1587811148136
141, 1132.53, 408.50, 599.89, 834.12, 0.032, 0.000, -1.040, 12:39:08.151, 1587811148151
142, 1182.49, 464.45, 622.44, 837.29, 0.032, 0.000, -1.040, 12:39:08.151, 1587811148151
143, 1162.53, 459.17, 589.00, 844.82, 0.032, 0.000, -1.040, 12:39:08.152, 1587811148152
144, 1114.92, 406.31, 571.87, 847.72, 0.032, 0.000, -1.040, 12:39:08.152, 1587811148152
145, 1129.68, 407.08, 599.74, 843.15, 0.032, 0.000, -1.040, 12:39:08.165, 1587811148165
146, 1174.22, 462.36, 615.96, 843.53, 0.032, 0.000, -1.040, 12:39:08.165, 1587811148165
147, 1160.94, 453.85, 589.70, 849.06, 0.032, 0.000, -1.040, 12:39:08.181, 1587811148181
148, 1115.63, 397.87, 569.69, 848.80, 0.032, 0.000, -1.040, 12:39:08.181, 1587811148181
149, 1124.61, 411.96, 596.50, 838.92, 0.032, 0.000, -1.040, 12:39:08.182, 1587811148182
150, 1173.75, 471.22, 621.14, 836.05, 0.032, 0.000, -1.040, 12:39:08.182, 1587811148182
151, 1159.71, 456.85, 588.57, 849.74, 0.032, 0.000, -1.040, 12:39:08.195, 1587811148195
152, 1114.87, 405.37, 574.90, 850.12, 0.032, 0.000, -1.040, 12:39:08.195, 1587811148195
153, 1131.23, 414.77, 598.35, 840.74, 0.032, 0.000, -1.040, 12:39:08.212, 1587811148212
154, 1178.70, 469.94, 618.96, 836.53, 0.032, 0.000, -1.040, 12:39:08.212, 1587811148212
155, 1157.69, 454.98, 591.11, 848.50, 0.032, 0.000, -1.040, 12:39:08.213, 1587811148213
156, 1112.68, 407.82, 572.94, 849.91, 0.032, 0.000, -1.040, 12:39:08.213, 1587811148213
157, 1129.36, 416.31, 598.86, 841.54, 0.032, 0.000, -1.040, 12:39:08.226, 1587811148226
158, 1178.16, 472.67, 623.06, 843.38, 0.032, 0.000, -1.040, 12:39:08.226, 1587811148226
159, 1165.92, 467.65, 594.25, 856.75, 0.032, 0.000, -1.040, 12:39:08.241, 1587811148241
160, 1120.89, 411.92, 575.54, 856.51, 0.032, 0.000, -1.040, 12:39:08.241, 1587811148241
161, 1135.65, 419.82, 604.34, 844.29, 0.032, 0.000, -1.040, 12:39:08.242, 1587811148242
162, 1179.98, 472.15, 622.33, 843.62, 0.032, 0.000, -1.040, 12:39:08.242, 1587811148242
163, 1168.74, 469.49, 600.74, 855.77, 0.032, 0.000, -1.040, 12:39:08.272, 1587811148272
164, 1124.09, 415.85, 577.06, 857.53, 0.032, 0.000, -1.040, 12:39:08.272, 1587811148272
165, 1141.22, 427.86, 606.08, 854.88, 0.032, 0.000, -1.040, 12:39:08.273, 1587811148273
166, 1184.41, 477.49, 625.49, 852.07, 0.032, 0.000, -1.024, 12:39:08.273, 1587811148273
167, 1167.25, 466.76, 599.61, 859.78, 0.032, 0.000, -1.024, 12:39:08.273, 1587811148273
168, 1120.46, 414.41, 580.71, 860.75, 0.032, 0.000, -1.024, 12:39:08.273, 1587811148273
169, 1139.77, 422.36, 609.90, 857.22, 0.032, 0.000, -1.024, 12:39:08.287, 1587811148287
170, 1186.82, 473.82, 628.42, 858.42, 0.032, 0.000, -1.024, 12:39:08.287, 1587811148287
171, 1168.53, 469.97, 603.37, 870.13, 0.032, 0.000, -1.024, 12:39:08.301, 1587811148301
172, 1122.93, 415.51, 582.77, 864.86, 0.032, 0.000, -1.024, 12:39:08.301, 1587811148301
173, 1137.62, 417.92, 608.07, 855.10, 0.032, 0.000, -1.024, 12:39:08.302, 1587811148302
174, 1180.70, 474.76, 627.91, 848.87, 0.032, 0.000, -1.024, 12:39:08.302, 1587811148302
175, 1170.35, 467.16, 601.88, 859.55, 0.032, 0.000, -1.024, 12:39:08.316, 1587811148316
176, 1122.27, 409.03, 577.08, 857.01, 0.032, 0.000, -1.024, 12:39:08.316, 1587811148316
177, 1136.85, 414.22, 602.19, 843.82, 0.032, 0.000, -1.024, 12:39:08.331, 1587811148331
178, 1185.94, 467.70, 619.33, 846.68, 0.032, 0.000, -1.024, 12:39:08.331, 1587811148331
179, 1164.11, 458.52, 589.56, 857.06, 0.032, 0.000, -1.024, 12:39:08.332, 1587811148332
180, 1121.41, 402.80, 573.06, 854.92, 0.032, 0.000, -1.024, 12:39:08.332, 1587811148332
181, 1137.25, 413.25, 605.93, 845.98, 0.032, 0.000, -1.024, 12:39:08.346, 1587811148346
182, 1184.18, 473.66, 624.02, 842.29, 0.032, 0.000, -1.024, 12:39:08.346, 1587811148346
183, 1164.12, 455.16, 591.57, 852.76, 0.032, 0.000, -1.024, 12:39:08.363, 1587811148363
184, 1121.73, 404.88, 568.64, 854.91, 0.032, 0.000, -1.024, 12:39:08.363, 1587811148363
185, 1133.26, 406.84, 593.21, 838.23, 0.032, 0.000, -1.024, 12:39:08.363, 1587811148363
186, 1179.05, 463.24, 614.48, 841.67, 0.032, 0.000, -1.024, 12:39:08.363, 1587811148363
187, 1168.24, 454.59, 590.96, 850.10, 0.032, 0.000, -1.024, 12:39:08.392, 1587811148392
188, 1118.69, 404.99, 569.32, 856.43, 0.032, 0.000, -1.024, 12:39:08.392, 1587811148392
189, 1138.38, 417.57, 600.69, 846.74, 0.032, 0.000, -1.024, 12:39:08.393, 1587811148393
190, 1183.18, 468.75, 621.24, 845.97, 0.032, 0.000, -1.024, 12:39:08.393, 1587811148393
191, 1166.04, 462.58, 589.34, 853.46, 0.032, 0.000, -1.024, 12:39:08.393, 1587811148393
192, 1125.83, 406.18, 575.74, 854.32, 0.032, 0.000, -1.024, 12:39:08.393, 1587811148393
193, 1138.68, 416.98, 600.28, 845.33, 0.032, 0.000, -1.024, 12:39:08.406, 1587811148406
194, 1181.55, 470.97, 620.98, 841.51, 0.032, 0.000, -1.024, 12:39:08.406, 1587811148406
195, 1166.33, 463.63, 592.10, 854.23, 0.032, 0.000, -1.024, 12:39:08.421, 1587811148421
196, 1115.53, 399.01, 565.41, 850.46, 0.032, 0.000, -1.024, 12:39:08.421, 1587811148421
197, 1126.57, 405.84, 594.42, 835.16, 0.032, 0.000, -1.024, 12:39:08.422, 1587811148422
198, 1179.53, 466.81, 618.81, 840.34, 0.032, 0.000, -1.024, 12:39:08.422, 1587811148422
199, 1170.19, 457.77, 590.71, 852.95, 0.032, 0.000, -1.024, 12:39:08.453, 1587811148453
200, 1124.02, 411.77, 578.87, 854.47, 0.032, 0.000, -1.024, 12:39:08.453, 1587811148453
0, 1139.99, 419.67, 605.21, 843.24, 0.032, 0.000, -1.024, 12:39:08.453, 1587811148453
1, 1180.08, 474.68, 626.14, 846.29, 0.032, 0.000, -1.024, 12:39:08.454, 1587811148454
2, 1170.10, 465.19, 592.00, 853.62, 0.032, 0.000, -1.024, 12:39:08.454, 1587811148454
3, 1123.51, 411.39, 572.10, 855.14, 0.032, 0.000, -1.024, 12:39:08.455, 1587811148455
4, 1138.30, 417.00, 602.25, 847.59, 0.032, 0.000, -1.024, 12:39:08.455, 1587811148455
5, 1183.32, 473.96, 626.03, 849.13, 0.032, 0.000, -1.024, 12:39:08.466, 1587811148466
6, 1169.08, 466.15, 591.38, 858.91, 0.032, 0.000, -1.040, 12:39:08.466, 1587811148466
7, 1122.09, 406.98, 572.37, 859.27, 0.032, 0.000, -1.040, 12:39:08.481, 1587811148481
8, 1140.14, 420.78, 602.52, 844.53, 0.032, 0.000, -1.040, 12:39:08.481, 1587811148481
9, 1185.49, 468.75, 619.38, 843.55, 0.032, 0.000, -1.040, 12:39:08.513, 1587811148513
10, 1169.05, 461.19, 596.07, 852.46, 0.032, 0.000, -1.040, 12:39:08.513, 1587811148513
11, 1124.04, 414.84, 574.76, 857.06, 0.032, 0.000, -1.040, 12:39:08.513, 1587811148513
12, 1142.80, 416.85, 600.90, 845.66, 0.032, 0.000, -1.040, 12:39:08.513, 1587811148513
13, 1177.51, 466.53, 614.88, 841.57, 0.032, 0.000, -1.040, 12:39:08.514, 1587811148514
14, 1161.19, 463.31, 588.66, 848.28, 0.032, 0.000, -1.040, 12:39:08.514, 1587811148514
15, 1119.66, 408.10, 573.35, 853.15, 0.032, 0.000, -1.040, 12:39:08.515, 1587811148515
16, 1138.84, 418.18, 608.14, 843.42, 0.032, 0.000, -1.040, 12:39:08.515, 1587811148515
17, 1186.39, 470.52, 624.69, 843.37, 0.032, 0.000, -1.040, 12:39:08.526, 1587811148526
18, 1172.41, 460.48, 597.86, 853.80, 0.032, 0.000, -1.040, 12:39:08.526, 1587811148526
19, 1120.31, 399.29, 572.46, 853.21, 0.032, 0.000, -1.040, 12:39:08.541, 1587811148541
20, 1131.71, 414.08, 603.48, 852.40, 0.032, 0.000, -1.040, 12:39:08.541, 1587811148541
21, 1182.96, 472.73, 624.21, 840.57, 0.032, 0.000, -1.040, 12:39:08.556, 1587811148556
22, 1168.06, 461.51, 590.62, 852.13, 0.032, 0.000, -1.040, 12:39:08.556, 1587811148556
23, 1120.68, 405.95, 569.18, 857.00, 0.032, 0.000, -1.040, 12:39:08.557, 1587811148557
24, 1141.86, 412.57, 599.00, 845.55, 0.032, 0.000, -1.040, 12:39:08.557, 1587811148557
25, 1186.45, 463.43, 620.56, 841.28, 0.032, 0.000, -1.040, 12:39:08.571, 1587811148571
26, 1168.15, 459.27, 591.87, 844.08, 0.032, 0.000, -1.024, 12:39:08.571, 1587811148571
27, 1121.85, 401.17, 570.85, 847.95, 0.032, 0.000, -1.024, 12:39:08.586, 1587811148586
28, 1140.48, 412.21, 598.69, 836.98, 0.032, 0.000, -1.024, 12:39:08.586, 1587811148586
29, 1187.23, 466.55, 618.57, 840.09, 0.032, 0.000, -1.024, 12:39:08.587, 1587811148587
30, 1173.17, 466.78, 598.64, 853.74, 0.032, 0.000, -1.024, 12:39:08.587, 1587811148587
31, 1122.89, 408.67, 576.95, 858.39, 0.032, 0.000, -1.024, 12:39:08.601, 1587811148601
32, 1138.52, 416.33, 601.86, 841.87, 0.032, 0.000, -1.024, 12:39:08.601, 1587811148601
33, 1184.74, 468.13, 623.68, 845.66, 0.032, 0.000, -1.024, 12:39:08.617, 1587811148617
34, 1170.82, 457.98, 595.04, 851.54, 0.032, 0.000, -1.024, 12:39:08.617, 1587811148617
35, 1124.95, 406.60, 575.52, 854.76, 0.032, 0.000, -1.024, 12:39:08.617, 1587811148617
36, 1132.49, 410.04, 598.55, 841.78, 0.032, 0.000, -1.024, 12:39:08.617, 1587811148617
37, 1178.97, 467.13, 625.23, 842.95, 0.032, 0.000, -1.024, 12:39:08.631, 1587811148631
38, 1169.16, 460.38, 593.16, 855.93, 0.032, 0.000, -1.024, 12:39:08.631, 1587811148631
39, 1122.06, 405.57, 574.76, 856.43, 0.032, 0.000, -1.024, 12:39:08.647, 1587811148647
40, 1137.16, 414.03, 603.93, 843.58, 0.032, 0.000, -1.024, 12:39:08.647, 1587811148647
41, 1176.98, 470.71, 621.61, 845.10, 0.032, 0.000, -1.024, 12:39:08.648, 1587811148648
42, 1164.65, 458.38, 595.56, 852.24, 0.032, 0.000, -1.024, 12:39:08.648, 1587811148648
43, 1118.67, 400.40, 572.56, 852.49, 0.032, 0.000, -1.024, 12:39:08.661, 1587811148661
44, 1129.53, 404.44, 597.39, 839.05, 0.032, 0.000, -1.024, 12:39:08.661, 1587811148661
45, 1173.75, 458.90, 616.46, 840.19, 0.032, 0.000, -1.024, 12:39:08.676, 1587811148676
46, 1156.81, 452.26, 588.10, 852.39, 0.032, 0.000, -1.024, 12:39:08.676, 1587811148676
47, 1115.47, 398.77, 569.67, 853.91, 0.032, 0.000, -1.024, 12:39:08.677, 1587811148677
48, 1130.53, 405.62, 601.31, 847.93, 0.032, 0.000, -1.024, 12:39:08.677, 1587811148677
49, 1174.27, 460.99, 619.59, 847.53, 0.032, 0.000, -1.024, 12:39:08.691, 1587811148691
50, 1162.68, 454.63, 592.71, 852.58, 0.032, 0.000, -1.024, 12:39:08.691, 1587811148691
51, 1115.67, 402.00, 568.25, 855.05, 0.032, 0.000, -1.024, 12:39:08.706, 1587811148706
52, 1129.84, 411.87, 604.27, 841.45, 0.032, 0.000, -1.024, 12:39:08.706, 1587811148706
53, 1172.76, 466.58, 617.98, 841.53, 0.032, 0.000, -1.024, 12:39:08.707, 1587811148707
54, 1163.97, 460.94, 599.54, 851.50, 0.032, 0.000, -1.024, 12:39:08.707, 1587811148707
55, 1120.98, 409.49, 579.76, 851.72, 0.032, 0.000, -1.024, 12:39:08.722, 1587811148722
56, 1133.40, 415.80, 602.25, 841.76, 0.032, 0.000, -1.024, 12:39:08.722, 1587811148722
57, 1174.03, 460.22, 614.97, 839.92, 0.032, 0.000, -1.024, 12:39:08.736, 1587811148736
58, 1159.97, 451.90, 585.99, 852.21, 0.032, 0.000, -1.024, 12:39:08.736, 1587811148736
59, 1115.52, 398.73, 564.81, 855.84, 0.032, 0.000, -1.024, 12:39:08.737, 1587811148737
60, 1136.59, 406.29, 596.07, 840.76, 0.032, 0.000, -1.024, 12:39:08.737, 1587811148737
61, 1183.55, 462.46, 622.07, 839.53, 0.032, 0.000, -1.024, 12:39:08.751, 1587811148751
62, 1174.58, 463.58, 604.57, 854.31, 0.032, 0.000, -1.024, 12:39:08.751, 1587811148751
63, 1144.08, 430.26, 596.28, 873.44, 0.032, 0.000, -1.024, 12:39:08.766, 1587811148766
64, 1145.04, 426.67, 615.04, 848.05, 0.032, 0.000, -1.024, 12:39:08.766, 1587811148766
65, 1193.72, 476.87, 636.61, 848.52, 0.032, 0.000, -1.024, 12:39:08.767, 1587811148767
66, 1156.97, 455.00, 586.78, 843.02, 0.032, 0.000, -1.024, 12:39:08.767, 1587811148767
67, 1117.35, 398.19, 569.40, 843.48, 0.032, 0.000, -1.024, 12:39:08.781, 1587811148781
68, 1128.12, 407.41, 599.43, 834.64, 0.032, 0.000, -1.024, 12:39:08.781, 1587811148781
69, 1179.49, 462.86, 623.68, 838.21, 0.032, 0.000, -1.024, 12:39:08.797, 1587811148797
70, 1165.51, 462.09, 592.52, 848.46, 0.032, 0.000, -1.024, 12:39:08.797, 1587811148797
71, 1116.84, 402.03, 575.68, 850.70, 0.032, 0.000, -1.024, 12:39:08.797, 1587811148797
72, 1132.25, 410.44, 600.84, 848.19, 0.032, 0.000, -1.024, 12:39:08.797, 1587811148797
73, 1177.37, 466.11, 621.03, 843.15, 0.032, 0.000, -1.024, 12:39:08.811, 1587811148811
74, 1162.92, 453.82, 590.64, 857.59, 0.032, 0.000, -1.024, 12:39:08.811, 1587811148811
75, 1113.30, 399.60, 570.16, 858.43, 0.032, 0.000, -1.024, 12:39:08.827, 1587811148827
76, 1130.51, 404.60, 602.37, 847.15, 0.032, 0.000, -1.024, 12:39:08.827, 1587811148827
77, 1175.56, 459.57, 622.04, 841.96, 0.032, 0.000, -1.024, 12:39:08.827, 1587811148827
78, 1163.49, 447.54, 587.36, 850.04, 0.032, 0.000, -1.024, 12:39:08.827, 1587811148827
79, 1116.14, 395.14, 568.84, 851.93, 0.032, 0.000, -1.024, 12:39:08.840, 1587811148840
80, 1132.19, 401.85, 598.10, 840.92, 0.032, 0.000, -1.024, 12:39:08.840, 1587811148840
81, 1177.09, 456.83, 618.45, 841.39, 0.032, 0.000, -1.024, 12:39:08.857, 1587811148857
82, 1163.87, 456.09, 593.38, 851.61, 0.032, 0.000, -1.024, 12:39:08.857, 1587811148857
83, 1125.13, 404.42, 582.19, 852.61, 0.032, 0.000, -1.024, 12:39:08.857, 1587811148857
84, 1136.60, 405.47, 608.55, 842.41, 0.032, 0.000, -1.024, 12:39:08.857, 1587811148857
85, 1183.42, 466.31, 627.83, 838.43, 0.032, 0.000, -1.024, 12:39:08.887, 1587811148887
86, 1167.60, 450.07, 598.26, 847.73, 0.032, 0.000, -1.040, 12:39:08.887, 1587811148887
87, 1120.45, 399.96, 578.69, 852.55, 0.032, 0.000, -1.040, 12:39:08.888, 1587811148888
88, 1140.39, 414.37, 614.23, 848.57, 0.032, 0.000, -1.040, 12:39:08.888, 1587811148888
89, 1184.31, 466.11, 635.52, 843.04, 0.032, 0.000, -1.040, 12:39:08.888, 1587811148888
90, 1170.14, 454.63, 600.10, 855.50, 0.032, 0.000, -1.040, 12:39:08.888, 1587811148888
91, 1121.23, 404.83, 579.87, 850.92, 0.032, 0.000, -1.040, 12:39:08.901, 1587811148901
92, 1143.66, 412.26, 613.76, 841.48, 0.032, 0.000, -1.040, 12:39:08.901, 1587811148901
93, 1189.45, 471.72, 635.74, 841.19, 0.032, 0.000, -1.040, 12:39:08.916, 1587811148916
94, 1173.86, 462.76, 607.97, 854.13, 0.032, 0.000, -1.040, 12:39:08.916, 1587811148916
95, 1129.66, 414.16, 585.88, 859.30, 0.032, 0.000, -1.040, 12:39:08.917, 1587811148917
96, 1143.55, 411.83, 614.30, 849.80, 0.032, 0.000, -1.040, 12:39:08.917, 1587811148917
97, 1188.94, 464.20, 637.28, 847.78, 0.032, 0.000, -1.040, 12:39:08.947, 1587811148947
98, 1169.77, 455.88, 599.38, 856.45, 0.032, 0.000, -1.040, 12:39:08.947, 1587811148947
99, 1122.62, 403.48, 581.26, 857.86, 0.032, 0.000, -1.040, 12:39:08.948, 1587811148948
100, 1133.83, 411.81, 606.79, 849.37, 0.032, 0.000, -1.040, 12:39:08.948, 1587811148948
101, 1179.02, 456.45, 621.02, 847.74, 0.032, 0.000, -1.040, 12:39:08.948, 1587811148948
102, 1167.12, 456.73, 596.29, 863.82, 0.032, 0.000, -1.040, 12:39:08.948, 1587811148948
103, 1118.83, 397.52, 573.09, 863.88, 0.032, 0.000, -1.040, 12:39:08.961, 1587811148961
104, 1129.47, 405.66, 599.24, 850.04, 0.032, 0.000, -1.040, 12:39:08.961, 1587811148961
105, 1175.69, 457.36, 623.51, 843.68, 0.032, 0.000, -1.040, 12:39:08.976, 1587811148976
106, 1161.83, 445.49, 590.23, 851.00, 0.032, 0.000, -1.040, 12:39:08.976, 1587811148976
107, 1108.17, 384.28, 565.28, 852.15, 0.032, 0.000, -1.040, 12:39:08.977, 1587811148977
108, 1124.66, 399.09, 596.96, 837.08, 0.032, 0.000, -1.040, 12:39:08.977, 1587811148977
109, 1175.53, 450.38, 613.22, 836.39, 0.032, 0.000, -1.040, 12:39:08.990, 1587811148990
110, 1160.18, 441.85, 586.43, 848.04, 0.032, 0.000, -1.040, 12:39:08.990, 1587811148990
111, 1116.62, 387.14, 566.76, 851.19, 0.032, 0.000, -1.040, 12:39:09.007, 1587811149007
112, 1129.74, 398.99, 600.60, 845.67, 0.032, 0.000, -1.040, 12:39:09.007, 1587811149007
113, 1178.20, 453.67, 616.98, 841.81, 0.032, 0.000, -1.040, 12:39:09.007, 1587811149007
114, 1163.37, 444.16, 587.56, 852.31, 0.032, 0.000, -1.040, 12:39:09.007, 1587811149007
115, 1114.13, 385.69, 565.22, 850.55, 0.032, 0.000, -1.040, 12:39:09.021, 1587811149021
116, 1129.16, 393.81, 597.88, 841.09, 0.032, 0.000, -1.040, 12:39:09.021, 1587811149021
117, 1178.27, 451.68, 618.79, 839.29, 0.032, 0.000, -1.040, 12:39:09.037, 1587811149037
118, 1164.33, 439.97, 586.23, 849.58, 0.032, 0.000, -1.040, 12:39:09.037, 1587811149037
119, 1120.49, 393.16, 569.80, 849.41, 0.032, 0.000, -1.040, 12:39:09.037, 1587811149037
120, 1136.70, 401.54, 604.18, 848.18, 0.032, 0.000, -1.040, 12:39:09.037, 1587811149037
121, 1188.47, 460.76, 627.19, 847.54, 0.032, 0.000, -1.040, 12:39:09.051, 1587811149051
122, 1171.64, 455.27, 598.24, 853.71, 0.032, 0.000, -1.040, 12:39:09.051, 1587811149051
123, 1123.35, 401.20, 579.35, 855.72, 0.032, 0.000, -1.040, 12:39:09.066, 1587811149066
124, 1134.99, 407.72, 605.57, 847.56, 0.032, 0.000, -1.040, 12:39:09.066, 1587811149066
125, 1185.05, 460.64, 628.38, 839.66, 0.032, 0.000, -1.040, 12:39:09.067, 1587811149067
126, 1172.50, 454.65, 598.29, 853.29, 0.032, 0.000, -1.024, 12:39:09.067, 1587811149067
127, 1126.75, 405.54, 582.16, 851.46, 0.032, 0.000, -1.024, 12:39:09.081, 1587811149081
128, 1144.03, 406.73, 610.56, 843.07, 0.032, 0.000, -1.024, 12:39:09.081, 1587811149081
129, 1190.99, 470.89, 631.83, 843.16, 0.032, 0.000, -1.024, 12:39:09.096, 1587811149096
130, 1170.99, 458.24, 600.12, 849.82, 0.032, 0.000, -1.024, 12:39:09.096, 1587811149096
131, 1123.90, 404.09, 579.16, 851.16, 0.032, 0.000, -1.024, 12:39:09.097, 1587811149097
132, 1135.27, 407.57, 605.89, 845.96, 0.032, 0.000, -1.024, 12:39:09.097, 1587811149097
133, 1179.66, 464.10, 628.86, 841.49, 0.032, 0.000, -1.024, 12:39:09.111, 1587811149111
134, 1166.90, 455.19, 593.34, 855.03, 0.032, 0.000, -1.024, 12:39:09.111, 1587811149111
135, 1124.77, 407.24, 579.25, 854.62, 0.032, 0.000, -1.024, 12:39:09.126, 1587811149126
136, 1137.61, 410.90, 608.25, 844.37, 0.032, 0.000, -1.024, 12:39:09.126, 1587811149126
137, 1189.03, 462.12, 627.92, 839.50, 0.032, 0.000, -1.024, 12:39:09.127, 1587811149127
138, 1169.18, 454.60, 598.54, 850.43, 0.032, 0.000, -1.024, 12:39:09.127, 1587811149127
139, 1120.04, 398.65, 574.70, 846.72, 0.032, 0.000, -1.024, 12:39:09.141, 1587811149141
140, 1130.62, 406.43, 598.43, 838.68, 0.032, 0.000, -1.024, 12:39:09.141, 1587811149141
141, 1173.78, 459.27, 618.43, 834.97, 0.032, 0.000, -1.024, 12:39:09.156, 1587811149156
142, 1164.29, 448.91, 594.79, 851.26, 0.032, 0.000, -1.024, 12:39:09.156, 1587811149156
143, 1118.91, 398.55, 574.79, 850.55, 0.032, 0.000, -1.024, 12:39:09.157, 1587811149157
144, 1127.31, 399.56, 599.15, 839.99, 0.032, 0.000, -1.024, 12:39:09.157, 1587811149157
145, 1175.19, 458.03, 619.24, 838.21, 0.032, 0.000, -1.024, 12:39:09.170, 1587811149170
146, 1165.23, 457.10, 593.24, 851.07, 0.032, 0.000, -1.040, 12:39:09.170, 1587811149170
147, 1118.75, 403.48, 577.06, 852.38, 0.032, 0.000, -1.040, 12:39:09.186, 1587811149186
148, 1131.78, 408.51, 605.62, 840.85, 0.032, 0.000, -1.040, 12:39:09.186, 1587811149186
149, 1175.44, 462.16, 621.69, 838.43, 0.032, 0.000, -1.040, 12:39:09.187, 1587811149187
150, 1158.96, 454.26, 590.19, 849.39, 0.032, 0.000, -1.040, 12:39:09.187, 1587811149187
151, 1110.86, 395.90, 569.56, 851.77, 0.032, 0.000, -1.040, 12:39:09.200, 1587811149200
152, 1124.75, 403.52, 600.27, 842.94, 0.032, 0.000, -1.040, 12:39:09.201, 1587811149201
153, 1175.53, 458.04, 624.19, 835.12, 0.032, 0.000, -1.040, 12:39:09.217, 1587811149217
154, 1162.93, 459.26, 592.29, 848.46, 0.032, 0.000, -1.040, 12:39:09.217, 1587811149217
155, 1121.32, 403.86, 575.07, 846.87, 0.032, 0.000, -1.040, 12:39:09.217, 1587811149217
156, 1129.60, 408.71, 604.12, 842.75, 0.032, 0.000, -1.040, 12:39:09.217, 1587811149217
157, 1178.79, 467.32, 623.66, 838.59, 0.032, 0.000, -1.040, 12:39:09.231, 1587811149231
158, 1163.96, 456.26, 592.75, 849.03, 0.032, 0.000, -1.040, 12:39:09.231, 1587811149231
159, 1122.31, 407.29, 583.17, 852.44, 0.032, 0.000, -1.040, 12:39:09.247, 1587811149247
160, 1136.83, 414.49, 611.57, 845.46, 0.032, 0.000, -1.040, 12:39:09.247, 1587811149247
161, 1184.77, 467.47, 627.73, 846.48, 0.032, 0.000, -1.040, 12:39:09.247, 1587811149247
162, 1165.52, 463.41, 597.91, 860.17, 0.032, 0.000, -1.040, 12:39:09.247, 1587811149247
163, 1120.00, 406.32, 577.06, 861.66, 0.032, 0.000, -1.040, 12:39:09.261, 1587811149261
164, 1133.72, 416.38, 607.61, 851.90, 0.032, 0.000, -1.040, 12:39:09.261, 1587811149261
165, 1185.69, 467.12, 627.84, 849.05, 0.032, 0.000, -1.040, 12:39:09.276, 1587811149276
166, 1166.46, 462.54, 594.77, 862.69, 0.032, 0.000, -1.040, 12:39:09.276, 1587811149276
167, 1121.21, 412.16, 579.93, 865.89, 0.032, 0.000, -1.040, 12:39:09.277, 1587811149277
168, 1137.48, 421.87, 612.21, 855.68, 0.032, 0.000, -1.040, 12:39:09.277, 1587811149277
169, 1179.13, 476.00, 631.07, 851.21, 0.032, 0.000, -1.040, 12:39:09.291, 1587811149291
170, 1167.13, 471.80, 605.11, 865.71, 0.032, 0.000, -1.040, 12:39:09.291, 1587811149291
171, 1120.47, 410.45, 582.67, 866.93, 0.032, 0.000, -1.040, 12:39:09.306, 1587811149306
172, 1130.27, 412.08, 606.10, 850.89, 0.032, 0.000, -1.040, 12:39:09.306, 1587811149306
173, 1180.41, 468.97, 626.65, 852.29, 0.032, 0.000, -1.040, 12:39:09.307, 1587811149307
174, 1162.17, 463.77, 599.68, 861.64, 0.032, 0.000, -1.040, 12:39:09.307, 1587811149307
175, 1115.90, 404.02, 574.66, 858.98, 0.032, 0.000, -1.040, 12:39:09.321, 1587811149321
176, 1131.05, 416.09, 601.83, 849.12, 0.032, 0.000, -1.040, 12:39:09.321, 1587811149321
177, 1178.62, 468.40, 626.75, 848.93, 0.032, 0.000, -1.040, 12:39:09.336, 1587811149336
178, 1160.96, 459.34, 596.83, 859.71, 0.032, 0.000, -1.040, 12:39:09.336, 1587811149336
179, 1111.58, 406.50, 572.63, 858.48, 0.032, 0.000, -1.040, 12:39:09.337, 1587811149337
180, 1123.59, 406.90, 600.11, 852.98, 0.032, 0.000, -1.040, 12:39:09.337, 1587811149337
181, 1177.60, 467.23, 627.18, 845.84, 0.032, 0.000, -1.040, 12:39:09.351, 1587811149351
182, 1160.39, 464.42, 597.12, 857.21, 0.032, 0.000, -1.040, 12:39:09.351, 1587811149351
183, 1115.72, 406.60, 575.11, 861.94, 0.032, 0.000, -1.040, 12:39:09.366, 1587811149366
184, 1120.78, 410.65, 603.39, 851.10, 0.032, 0.000, -1.040, 12:39:09.366, 1587811149366
185, 1172.51, 472.50, 629.02, 850.46, 0.032, 0.000, -1.040, 12:39:09.381, 1587811149381
186, 1159.09, 462.64, 600.21, 857.65, 0.032, 0.000, -1.040, 12:39:09.381, 1587811149381
187, 1115.50, 407.04, 576.42, 859.49, 0.032, 0.000, -1.040, 12:39:09.382, 1587811149382
188, 1127.04, 415.00, 608.17, 849.88, 0.032, 0.000, -1.040, 12:39:09.382, 1587811149382
189, 1167.08, 463.80, 620.89, 843.80, 0.032, 0.000, -1.040, 12:39:09.396, 1587811149396
190, 1165.33, 472.58, 606.74, 860.41, 0.032, 0.000, -1.040, 12:39:09.396, 1587811149396
191, 1116.01, 416.01, 583.27, 858.63, 0.032, 0.000, -1.040, 12:39:09.397, 1587811149397
192, 1121.40, 418.54, 613.74, 849.03, 0.032, 0.000, -1.040, 12:39:09.397, 1587811149397
193, 1175.85, 479.83, 631.49, 847.98, 0.032, 0.000, -1.040, 12:39:09.411, 1587811149411
194, 1161.82, 474.36, 606.26, 860.58, 0.032, 0.000, -1.040, 12:39:09.411, 1587811149411
195, 1115.83, 421.23, 584.70, 861.94, 0.032, 0.000, -1.040, 12:39:09.427, 1587811149427
196, 1132.56, 422.43, 613.93, 853.72, 0.032, 0.000, -1.040, 12:39:09.427, 1587811149427
197, 1180.26, 477.83, 632.54, 855.11, 0.032, 0.000, -1.040, 12:39:09.427, 1587811149427
198, 1164.52, 466.98, 606.35, 863.56, 0.032, 0.000, -1.040, 12:39:09.427, 1587811149427
199, 1112.09, 405.19, 578.94, 861.89, 0.032, 0.000, -1.040, 12:39:09.441, 1587811149441
200, 1125.57, 410.83, 604.69, 847.31, 0.032, 0.000, -1.040, 12:39:09.441, 1587811149441
0, 1176.19, 466.05, 626.18, 847.84, 0.032, 0.000, -1.040, 12:39:09.442, 1587811149442
1, 1168.77, 460.22, 598.30, 854.91, 0.032, 0.000, -1.040, 12:39:09.456, 1587811149456
2, 1115.76, 413.83, 584.62, 855.00, 0.032, 0.000, -1.040, 12:39:09.456, 1587811149456
3, 1130.99, 415.85, 611.83, 843.97, 0.032, 0.000, -1.040, 12:39:09.471, 1587811149471
4, 1178.31, 470.65, 625.43, 846.08, 0.032, 0.000, -1.040, 12:39:09.471, 1587811149471
5, 1164.72, 472.76, 605.15, 854.51, 0.032, 0.000, -1.040, 12:39:09.473, 1587811149473
6, 1115.71, 414.47, 584.99, 855.19, 0.032, 0.000, -1.040, 12:39:09.473, 1587811149473
7, 1131.13, 416.75, 611.02, 842.54, 0.032, 0.000, -1.040, 12:39:09.486, 1587811149486
8, 1174.30, 475.63, 635.40, 839.92, 0.032, 0.000, -1.040, 12:39:09.486, 1587811149486
9, 1160.70, 471.79, 606.19, 850.90, 0.032, 0.000, -1.040, 12:39:09.502, 1587811149502
10, 1116.74, 409.75, 579.53, 851.58, 0.032, 0.000, -1.040, 12:39:09.502, 1587811149502
11, 1130.58, 420.71, 615.38, 846.42, 0.032, 0.000, -1.040, 12:39:09.502, 1587811149502
12, 1180.52, 479.46, 639.73, 841.11, 0.032, 0.000, -1.040, 12:39:09.502, 1587811149502
13, 1168.54, 472.21, 606.68, 855.50, 0.032, 0.000, -1.040, 12:39:09.516, 1587811149516
14, 1117.64, 414.89, 584.41, 857.74, 0.032, 0.000, -1.040, 12:39:09.516, 1587811149516
15, 1134.39, 417.65, 614.67, 846.81, 0.032, 0.000, -1.040, 12:39:09.532, 1587811149532
16, 1181.99, 474.26, 630.79, 844.86, 0.032, 0.000, -1.040, 12:39:09.532, 1587811149532
17, 1165.40, 466.94, 600.04, 856.19, 0.032, 0.000, -1.040, 12:39:09.532, 1587811149532
18, 1119.84, 418.32, 579.85, 857.85, 0.032, 0.000, -1.040, 12:39:09.532, 1587811149532
19, 1127.11, 416.91, 609.10, 850.91, 0.032, 0.000, -1.040, 12:39:09.562, 1587811149562
20, 1178.61, 469.16, 632.66, 849.41, 0.032, 0.000, -1.040, 12:39:09.562, 1587811149562
21, 1169.08, 472.67, 609.69, 860.82, 0.032, 0.000, -1.040, 12:39:09.563, 1587811149563
22, 1121.71, 420.17, 587.52, 861.88, 0.032, 0.000, -1.040, 12:39:09.563, 1587811149563
23, 1135.88, 425.15, 612.48, 846.32, 0.032, 0.000, -1.040, 12:39:09.563, 1587811149563
24, 1180.46, 479.47, 635.21, 849.99, 0.032, 0.000, -1.040, 12:39:09.563, 1587811149563
25, 1166.22, 471.70, 607.47, 856.98, 0.032, 0.000, -1.040, 12:39:09.576, 1587811149576
26, 1111.75, 413.14, 586.67, 858.65, 0.032, 0.000, -1.024, 12:39:09.576, 1587811149576
27, 1131.67, 419.78, 614.12, 846.67, 0.032, 0.000, -1.024, 12:39:09.591, 1587811149591
28, 1176.52, 472.27, 631.49, 846.61, 0.032, 0.000, -1.024, 12:39:09.591, 1587811149591
29, 1163.41, 472.83, 608.32, 860.77, 0.032, 0.000, -1.024, 12:39:09.592, 1587811149592
30, 1118.78, 418.98, 585.12, 865.42, 0.032, 0.000, -1.024, 12:39:09.592, 1587811149592
31, 1131.25, 422.97, 615.11, 850.09, 0.032, 0.000, -1.024, 12:39:09.606, 1587811149606
32, 1174.96, 475.46, 628.23, 843.99, 0.032, 0.000, -1.024, 12:39:09.606, 1587811149606
33, 1162.27, 467.15, 600.13, 855.28, 0.032, 0.000, -1.024, 12:39:09.622, 1587811149622
34, 1116.19, 414.67, 580.49, 854.51, 0.032, 0.000, -1.024, 12:39:09.622, 1587811149622
35, 1127.43, 416.86, 607.51, 843.54, 0.032, 0.000, -1.024, 12:39:09.623, 1587811149623
36, 1168.77, 473.04, 626.53, 841.34, 0.032, 0.000, -1.024, 12:39:09.623, 1587811149623
37, 1159.65, 471.37, 602.65, 853.02, 0.032, 0.000, -1.024, 12:39:09.636, 1587811149636
38, 1110.55, 414.12, 580.81, 853.42, 0.032, 0.000, -1.024, 12:39:09.636, 1587811149636
39, 1127.12, 412.04, 607.19, 844.65, 0.032, 0.000, -1.024, 12:39:09.651, 1587811149651
40, 1172.78, 472.95, 631.36, 842.70, 0.032, 0.000, -1.024, 12:39:09.651, 1587811149651
41, 1161.59, 470.18, 601.17, 854.28, 0.032, 0.000, -1.024, 12:39:09.652, 1587811149652
42, 1118.51, 411.49, 584.10, 856.86, 0.032, 0.000, -1.024, 12:39:09.652, 1587811149652
43, 1130.70, 421.60, 612.86, 846.73, 0.032, 0.000, -1.024, 12:39:09.666, 1587811149666
44, 1180.31, 478.85, 634.77, 845.71, 0.032, 0.000, -1.024, 12:39:09.666, 1587811149666
45, 1168.82, 475.98, 604.72, 857.67, 0.032, 0.000, -1.024, 12:39:09.682, 1587811149682
46, 1120.55, 414.88, 585.61, 861.98, 0.032, 0.000, -1.040, 12:39:09.682, 1587811149682
47, 1133.20, 423.81, 611.45, 849.80, 0.032, 0.000, -1.040, 12:39:09.684, 1587811149684
48, 1176.78, 469.95, 628.58, 847.70, 0.032, 0.000, -1.040, 12:39:09.684, 1587811149684
49, 1162.80, 467.81, 602.03, 857.13, 0.032, 0.000, -1.040, 12:39:09.695, 1587811149695
50, 1118.01, 414.92, 576.33, 862.72, 0.032, 0.000, -1.040, 12:39:09.695, 1587811149695
51, 1134.56, 424.65, 613.06, 852.73, 0.032, 0.000, -1.040, 12:39:09.712, 1587811149712
52, 1181.61, 478.52, 630.57, 848.34, 0.032, 0.000, -1.040, 12:39:09.712, 1587811149712
53, 1169.52, 475.37, 609.23, 860.09, 0.032, 0.000, -1.040, 12:39:09.713, 1587811149713
54, 1120.56, 419.33, 582.54, 859.28, 0.032, 0.000, -1.040, 12:39:09.713, 1587811149713
55, 1131.31, 422.20, 612.34, 848.89, 0.032, 0.000, -1.040, 12:39:09.725, 1587811149725
56, 1177.42, 475.89, 632.25, 844.05, 0.032, 0.000, -1.040, 12:39:09.725, 1587811149725
57, 1166.53, 471.03, 596.53, 854.17, 0.032, 0.000, -1.040, 12:39:09.741, 1587811149741
58, 1117.73, 410.95, 573.37, 860.20, 0.032, 0.000, -1.040, 12:39:09.741, 1587811149741
59, 1122.68, 414.22, 600.81, 849.93, 0.032, 0.000, -1.040, 12:39:09.742, 1587811149742
60, 1173.41, 474.87, 621.21, 845.34, 0.032, 0.000, -1.040, 12:39:09.742, 1587811149742
61, 1160.01, 469.11, 591.32, 856.18, 0.032, 0.000, -1.040, 12:39:09.757, 1587811149757
62, 1113.56, 414.73, 570.73, 862.99, 0.032, 0.000, -1.040, 12:39:09.757, 1587811149757
63, 1123.19, 411.82, 597.65, 849.17, 0.032, 0.000, -1.040, 12:39:09.771, 1587811149771
64, 1171.13, 469.09, 619.39, 845.98, 0.032, 0.000, -1.040, 12:39:09.771, 1587811149771
65, 1155.45, 467.06, 591.49, 858.57, 0.032, 0.000, -1.040, 12:39:09.772, 1587811149772
66, 1113.86, 410.59, 574.78, 866.43, 0.032, 0.000, -1.040, 12:39:09.772, 1587811149772
67, 1128.40, 415.11, 598.09, 851.04, 0.032, 0.000, -1.040, 12:39:09.786, 1587811149786
68, 1173.37, 478.22, 624.04, 849.03, 0.032, 0.000, -1.040, 12:39:09.786, 1587811149786
69, 1163.81, 475.93, 598.27, 852.89, 0.032, 0.000, -1.040, 12:39:09.801, 1587811149801
70, 1116.63, 417.36, 571.61, 857.41, 0.032, 0.000, -1.040, 12:39:09.801, 1587811149801
71, 1130.95, 423.61, 602.88, 843.74, 0.032, 0.000, -1.040, 12:39:09.802, 1587811149802
72, 1173.28, 475.43, 620.81, 845.22, 0.032, 0.000, -1.040, 12:39:09.802, 1587811149802
73, 1159.58, 475.76, 594.23, 854.89, 0.032, 0.000, -1.040, 12:39:09.816, 1587811149816
74, 1114.77, 413.64, 569.98, 855.65, 0.032, 0.000, -1.040, 12:39:09.816, 1587811149816
75, 1129.50, 421.23, 601.73, 842.81, 0.032, 0.000, -1.040, 12:39:09.832, 1587811149832
76, 1174.68, 473.13, 622.75, 845.36, 0.032, 0.000, -1.040, 12:39:09.832, 1587811149832
77, 1162.06, 476.21, 593.99, 856.72, 0.032, 0.000, -1.040, 12:39:09.833, 1587811149833
78, 1115.57, 418.32, 573.17, 855.11, 0.032, 0.000, -1.040, 12:39:09.833, 1587811149833
79, 1129.48, 422.07, 604.50, 845.51, 0.032, 0.000, -1.040, 12:39:09.846, 1587811149846
80, 1179.09, 477.21, 627.18, 841.23, 0.032, 0.000, -1.040, 12:39:09.846, 1587811149846
81, 1166.81, 474.53, 597.02, 853.73, 0.032, 0.000, -1.040, 12:39:09.861, 1587811149861
82, 1121.78, 422.96, 576.92, 856.12, 0.032, 0.000, -1.040, 12:39:09.861, 1587811149861
83, 1134.90, 418.87, 599.74, 851.42, 0.032, 0.000, -1.040, 12:39:09.862, 1587811149862
84, 1183.38, 480.45, 622.02, 841.34, 0.032, 0.000, -1.040, 12:39:09.862, 1587811149862
85, 1166.30, 474.68, 596.57, 855.25, 0.032, 0.000, -1.040, 12:39:09.876, 1587811149876
86, 1122.22, 423.74, 580.88, 858.56, 0.032, 0.000, -1.040, 12:39:09.876, 1587811149876
87, 1135.67, 423.43, 607.28, 847.07, 0.032, 0.000, -1.040, 12:39:09.891, 1587811149891
88, 1180.82, 472.52, 624.41, 845.61, 0.032, 0.000, -1.040, 12:39:09.891, 1587811149891
89, 1169.64, 478.56, 599.38, 859.95, 0.032, 0.000, -1.040, 12:39:09.892, 1587811149892
90, 1121.72, 427.89, 580.31, 859.09, 0.032, 0.000, -1.040, 12:39:09.892, 1587811149892
91, 1134.75, 429.82, 606.37, 852.99, 0.032, 0.000, -1.040, 12:39:09.907, 1587811149907
92, 1184.94, 490.69, 632.99, 853.24, 0.032, 0.000, -1.040, 12:39:09.907, 1587811149907
93, 1170.55, 483.03, 599.50, 862.66, 0.032, 0.000, -1.040, 12:39:09.921, 1587811149921
94, 1124.67, 430.55, 584.14, 866.32, 0.032, 0.000, -1.040, 12:39:09.921, 1587811149921
95, 1133.37, 431.58, 612.90, 852.01, 0.032, 0.000, -1.040, 12:39:09.922, 1587811149922
96, 1181.31, 485.70, 633.13, 856.74, 0.032, 0.000, -1.040, 12:39:09.922, 1587811149922
97, 1166.07, 482.07, 603.79, 859.52, 0.032, 0.000, -1.040, 12:39:09.936, 1587811149936
98, 1121.74, 427.09, 580.23, 866.94, 0.032, 0.000, -1.040, 12:39:09.936, 1587811149936
99, 1127.89, 424.16, 605.79, 851.44, 0.032, 0.000, -1.040, 12:39:09.952, 1587811149952
100, 1176.09, 481.82, 625.51, 847.65, 0.032, 0.000, -1.040, 12:39:09.952, 1587811149952
101, 1162.57, 474.61, 599.22, 858.17, 0.032, 0.000, -1.040, 12:39:09.952, 1587811149952
102, 1120.64, 421.16, 578.63, 862.32, 0.032, 0.000, -1.040, 12:39:09.952, 1587811149952
103, 1128.43, 425.87, 607.38, 848.64, 0.032, 0.000, -1.040, 12:39:09.966, 1587811149966
104, 1179.45, 481.13, 627.00, 843.94, 0.032, 0.000, -1.040, 12:39:09.966, 1587811149966
105, 1167.13, 474.87, 599.54, 857.51, 0.032, 0.000, -1.040, 12:39:09.998, 1587811149998
106, 1114.87, 419.07, 579.40, 859.14, 0.032, 0.000, -1.040, 12:39:09.998, 1587811149998
107, 1129.79, 421.79, 609.18, 850.24, 0.032, 0.000, -1.040, 12:39:09.998, 1587811149998
108, 1176.99, 478.23, 626.67, 846.90, 0.032, 0.000, -1.040, 12:39:09.998, 1587811149998
109, 1164.26, 470.83, 596.49, 855.91, 0.032, 0.000, -1.040, 12:39:09.999, 1587811149999
110, 1118.55, 413.49, 575.51, 851.61, 0.032, 0.000, -1.040, 12:39:09.999, 1587811149999
111, 1126.16, 419.16, 598.20, 840.21, 0.032, 0.000, -1.040, 12:39:10.000, 1587811150000
112, 1175.77, 472.56, 623.11, 843.24, 0.032, 0.000, -1.040, 12:39:10.000, 1587811150000
113, 1166.25, 471.66, 596.21, 854.14, 0.032, 0.000, -1.040, 12:39:10.011, 1587811150011
114, 1123.01, 418.64, 579.29, 854.50, 0.032, 0.000, -1.040, 12:39:10.011, 1587811150011
115, 1131.56, 427.11, 607.90, 841.58, 0.032, 0.000, -1.040, 12:39:10.025, 1587811150025
116, 1182.11, 483.91, 629.58, 842.19, 0.032, 0.000, -1.040, 12:39:10.025, 1587811150025
117, 1170.72, 482.79, 604.74, 854.71, 0.032, 0.000, -1.040, 12:39:10.058, 1587811150058
118, 1122.88, 425.75, 576.13, 857.61, 0.032, 0.000, -1.040, 12:39:10.058, 1587811150058
119, 1130.75, 425.55, 606.69, 852.19, 0.032, 0.000, -1.040, 12:39:10.058, 1587811150058
120, 1182.72, 482.90, 630.21, 850.03, 0.032, 0.000, -1.040, 12:39:10.058, 1587811150058
121, 1165.00, 476.71, 596.62, 856.46, 0.032, 0.000, -1.040, 12:39:10.059, 1587811150059
122, 1125.52, 422.09, 583.17, 857.22, 0.032, 0.000, -1.040, 12:39:10.059, 1587811150059
123, 1137.96, 423.55, 608.78, 848.99, 0.032, 0.000, -1.040, 12:39:10.060, 1587811150060
124, 1177.55, 479.20, 629.37, 845.34, 0.032, 0.000, -1.040, 12:39:10.060, 1587811150060
125, 1168.44, 474.23, 599.76, 853.29, 0.032, 0.000, -1.040, 12:39:10.070, 1587811150070
126, 1119.38, 415.79, 575.36, 859.92, 0.032, 0.000, -1.040, 12:39:10.070, 1587811150070
127, 1130.44, 425.30, 606.20, 851.79, 0.032, 0.000, -1.040, 12:39:10.086, 1587811150086
128, 1177.89, 476.66, 627.74, 849.47, 0.032, 0.000, -1.040, 12:39:10.086, 1587811150086
129, 1165.62, 474.71, 600.80, 858.28, 0.032, 0.000, -1.040, 12:39:10.118, 1587811150118
130, 1122.39, 422.50, 584.09, 856.91, 0.032, 0.000, -1.040, 12:39:10.118, 1587811150118
131, 1128.69, 424.89, 607.17, 846.79, 0.032, 0.000, -1.040, 12:39:10.119, 1587811150119
132, 1179.08, 472.85, 626.16, 846.13, 0.032, 0.000, -1.040, 12:39:10.119, 1587811150119
133, 1163.02, 467.25, 596.61, 856.80, 0.032, 0.000, -1.040, 12:39:10.119, 1587811150119
134, 1116.15, 412.16, 573.23, 853.48, 0.032, 0.000, -1.040, 12:39:10.119, 1587811150119
135, 1123.80, 417.30, 602.87, 840.91, 0.032, 0.000, -1.040, 12:39:10.120, 1587811150120
136, 1174.15, 471.44, 621.87, 845.15, 0.032, 0.000, -1.040, 12:39:10.120, 1587811150120
137, 1158.81, 464.42, 590.51, 855.46, 0.032, 0.000, -1.040, 12:39:10.130, 1587811150130
138, 1110.32, 411.75, 569.93, 854.69, 0.032, 0.000, -1.040, 12:39:10.130, 1587811150130
139, 1125.29, 417.55, 603.13, 843.31, 0.032, 0.000, -1.040, 12:39:10.146, 1587811150146
140, 1171.33, 471.13, 626.76, 840.68, 0.032, 0.000, -1.040, 12:39:10.146, 1587811150146
141, 1161.05, 469.52, 596.34, 852.59, 0.032, 0.000, -1.040, 12:39:10.178, 1587811150178
142, 1117.82, 418.81, 580.08, 857.04, 0.032, 0.000, -1.040, 12:39:10.178, 1587811150178
143, 1133.51, 422.88, 607.54, 850.49, 0.032, 0.000, -1.040, 12:39:10.178, 1587811150178
144, 1177.91, 483.47, 629.41, 847.35, 0.032, 0.000, -1.040, 12:39:10.178, 1587811150178
145, 1172.27, 478.07, 603.06, 860.30, 0.032, 0.000, -1.040, 12:39:10.179, 1587811150179
146, 1121.14, 420.87, 580.85, 858.06, 0.032, 0.000, -1.024, 12:39:10.179, 1587811150179
147, 1130.68, 427.88, 611.25, 850.06, 0.032, 0.000, -1.024, 12:39:10.180, 1587811150180
148, 1176.93, 480.88, 629.61, 845.93, 0.032, 0.000, -1.024, 12:39:10.180, 1587811150180
149, 1166.60, 476.73, 601.95, 858.23, 0.032, 0.000, -1.024, 12:39:10.192, 1587811150192
150, 1116.20, 424.62, 582.95, 861.24, 0.032, 0.000, -1.024, 12:39:10.192, 1587811150192
151, 1132.36, 428.14, 614.33, 850.35, 0.032, 0.000, -1.024, 12:39:10.206, 1587811150206
152, 1172.30, 476.26, 624.57, 851.32, 0.032, 0.000, -1.024, 12:39:10.206, 1587811150206
153, 1165.07, 471.98, 596.47, 857.96, 0.032, 0.000, -1.024, 12:39:10.222, 1587811150222
154, 1116.51, 410.07, 570.62, 855.09, 0.032, 0.000, -1.024, 12:39:10.222, 1587811150222
155, 1128.86, 412.47, 598.80, 844.20, 0.032, 0.000, -1.024, 12:39:10.223, 1587811150223
156, 1179.59, 473.79, 624.11, 843.38, 0.032, 0.000, -1.024, 12:39:10.223, 1587811150223
157, 1169.89, 467.92, 600.05, 855.80, 0.032, 0.000, -1.024, 12:39:10.236, 1587811150236
158, 1123.49, 421.07, 581.11, 858.73, 0.032, 0.000, -1.024, 12:39:10.236, 1587811150236
159, 1133.91, 418.17, 605.60, 853.03, 0.032, 0.000, -1.024, 12:39:10.251, 1587811150251
160, 1177.22, 479.57, 629.00, 852.81, 0.032, 0.000, -1.024, 12:39:10.251, 1587811150251
161, 1163.30, 467.63, 595.21, 858.10, 0.032, 0.000, -1.024, 12:39:10.252, 1587811150252
162, 1114.24, 412.77, 570.54, 859.53, 0.032, 0.000, -1.024, 12:39:10.252, 1587811150252
163, 1130.96, 415.32, 602.43, 846.55, 0.032, 0.000, -1.024, 12:39:10.266, 1587811150266
164, 1170.15, 475.46, 625.23, 846.12, 0.032, 0.000, -1.024, 12:39:10.266, 1587811150266
165, 1167.55, 474.73, 603.90, 854.40, 0.032, 0.000, -1.024, 12:39:10.281, 1587811150281
166, 1116.10, 412.93, 578.30, 858.74, 0.032, 0.000, -1.040, 12:39:10.281, 1587811150281
167, 1124.71, 416.20, 606.12, 845.64, 0.032, 0.000, -1.040, 12:39:10.282, 1587811150282
168, 1170.30, 467.28, 623.37, 843.62, 0.032, 0.000, -1.040, 12:39:10.282, 1587811150282
169, 1160.74, 468.46, 597.17, 854.49, 0.032, 0.000, -1.040, 12:39:10.296, 1587811150296
170, 1115.90, 409.12, 574.63, 852.98, 0.032, 0.000, -1.040, 12:39:10.296, 1587811150296
171, 1124.67, 407.90, 599.02, 838.01, 0.032, 0.000, -1.040, 12:39:10.311, 1587811150311
172, 1173.62, 460.65, 616.92, 835.41, 0.032, 0.000, -1.040, 12:39:10.311, 1587811150311
173, 1158.77, 460.14, 587.04, 849.60, 0.032, 0.000, -1.040, 12:39:10.312, 1587811150312
174, 1112.28, 404.55, 565.64, 847.08, 0.032, 0.000, -1.040, 12:39:10.312, 1587811150312
175, 1123.77, 406.44, 596.23, 841.47, 0.032, 0.000, -1.040, 12:39:10.326, 1587811150326
176, 1173.38, 469.11, 623.15, 843.26, 0.032, 0.000, -1.040, 12:39:10.326, 1587811150326
177, 1163.42, 464.62, 595.22, 850.98, 0.032, 0.000, -1.040, 12:39:10.341, 1587811150341
178, 1117.50, 414.25, 578.26, 852.25, 0.032, 0.000, -1.040, 12:39:10.341, 1587811150341
179, 1130.66, 418.77, 604.43, 845.99, 0.032, 0.000, -1.040, 12:39:10.342, 1587811150342
180, 1176.36, 471.01, 626.00, 845.65, 0.032, 0.000, -1.040, 12:39:10.342, 1587811150342
181, 1161.11, 465.38, 591.01, 847.76, 0.032, 0.000, -1.040, 12:39:10.355, 1587811150355
182, 1113.00, 414.59, 569.67, 848.11, 0.032, 0.000, -1.040, 12:39:10.355, 1587811150355
183, 1127.21, 413.32, 597.38, 846.29, 0.032, 0.000, -1.040, 12:39:10.371, 1587811150371
184, 1174.89, 468.18, 622.60, 838.89, 0.032, 0.000, -1.040, 12:39:10.371, 1587811150371
185, 1162.45, 463.21, 590.67, 847.69, 0.032, 0.000, -1.040, 12:39:10.372, 1587811150372
186, 1114.80, 413.31, 570.32, 851.22, 0.032, 0.000, -1.024, 12:39:10.372, 1587811150372
187, 1128.52, 412.24, 598.41, 841.83, 0.032, 0.000, -1.024, 12:39:10.386, 1587811150386
188, 1173.14, 460.80, 612.92, 835.27, 0.032, 0.000, -1.024, 12:39:10.386, 1587811150386
189, 1163.15, 459.39, 587.04, 845.40, 0.032, 0.000, -1.024, 12:39:10.402, 1587811150402
190, 1113.72, 405.53, 567.13, 843.93, 0.032, 0.000, -1.024, 12:39:10.402, 1587811150402
191, 1123.14, 416.65, 596.76, 837.37, 0.032, 0.000, -1.024, 12:39:10.402, 1587811150402
192, 1171.96, 469.03, 620.09, 837.34, 0.032, 0.000, -1.024, 12:39:10.402, 1587811150402
193, 1158.36, 470.07, 592.60, 850.40, 0.032, 0.000, -1.024, 12:39:10.415, 1587811150415
194, 1113.58, 413.06, 566.64, 855.17, 0.032, 0.000, -1.024, 12:39:10.415, 1587811150415
195, 1125.14, 414.59, 600.07, 843.09, 0.032, 0.000, -1.024, 12:39:10.432, 1587811150432
196, 1173.56, 476.25, 624.15, 843.93, 0.032, 0.000, -1.024, 12:39:10.432, 1587811150432
197, 1163.36, 474.71, 598.20, 854.22, 0.032, 0.000, -1.024, 12:39:10.432, 1587811150432
198, 1115.88, 417.12, 581.06, 853.86, 0.032, 0.000, -1.024, 12:39:10.432, 1587811150432
199, 1129.66, 419.85, 603.68, 844.95, 0.032, 0.000, -1.024, 12:39:10.446, 1587811150446
200, 1180.56, 473.93, 625.45, 849.09, 0.032, 0.000, -1.024, 12:39:10.446, 1587811150446
0, 1162.60, 469.95, 597.17, 853.80, 0.032, 0.000, -1.024, 12:39:10.447, 1587811150447
1, 1115.44, 409.90, 572.66, 856.12, 0.032, 0.000, -1.024, 12:39:10.461, 1587811150461
2, 1126.34, 415.19, 599.75, 843.38, 0.032, 0.000, -1.024, 12:39:10.461, 1587811150461
3, 1172.20, 468.18, 617.74, 842.94, 0.032, 0.000, -1.024, 12:39:10.477, 1587811150477
4, 1159.19, 463.63, 593.37, 854.26, 0.032, 0.000, -1.024, 12:39:10.477, 1587811150477
5, 1110.93, 403.87, 564.39, 858.32, 0.032, 0.000, -1.024, 12:39:10.477, 1587811150477
6, 1123.25, 411.30, 592.11, 848.36, 0.032, 0.000, -1.040, 12:39:10.477, 1587811150477
7, 1169.49, 469.82, 619.96, 841.40, 0.032, 0.000, -1.040, 12:39:10.491, 1587811150491
8, 1158.63, 465.04, 590.66, 853.15, 0.032, 0.000, -1.040, 12:39:10.491, 1587811150491
9, 1116.98, 410.87, 574.86, 857.79, 0.032, 0.000, -1.040, 12:39:10.507, 1587811150507
10, 1130.16, 414.86, 598.42, 848.88, 0.032, 0.000, -1.040, 12:39:10.507, 1587811150507
11, 1175.50, 473.01, 623.90, 843.20, 0.032, 0.000, -1.040, 12:39:10.508, 1587811150508
12, 1161.84, 468.09, 595.47, 855.41, 0.032, 0.000, -1.040, 12:39:10.508, 1587811150508
13, 1117.28, 409.89, 574.54, 855.47, 0.032, 0.000, -1.040, 12:39:10.521, 1587811150521
14, 1128.94, 418.83, 605.68, 848.14, 0.032, 0.000, -1.040, 12:39:10.521, 1587811150521
15, 1176.48, 474.87, 626.71, 845.54, 0.032, 0.000, -1.040, 12:39:10.553, 1587811150553
16, 1166.77, 476.13, 599.38, 857.08, 0.032, 0.000, -1.040, 12:39:10.553, 1587811150553
17, 1117.27, 421.80, 582.21, 855.31, 0.032, 0.000, -1.040, 12:39:10.553, 1587811150553
18, 1130.42, 431.52, 613.36, 849.53, 0.032, 0.000, -1.040, 12:39:10.553, 1587811150553
19, 1179.59, 481.59, 631.23, 851.24, 0.032, 0.000, -1.040, 12:39:10.554, 1587811150554
20, 1162.84, 482.74, 606.66, 859.21, 0.032, 0.000, -1.040, 12:39:10.554, 1587811150554
21, 1120.09, 422.29, 580.43, 860.01, 0.032, 0.000, -1.040, 12:39:10.555, 1587811150555
22, 1134.13, 432.43, 608.97, 850.92, 0.032, 0.000, -1.040, 12:39:10.555, 1587811150555
23, 1175.20, 481.81, 631.62, 848.23, 0.032, 0.000, -1.040, 12:39:10.566, 1587811150566
24, 1165.76, 480.13, 607.04, 857.44, 0.032, 0.000, -1.040, 12:39:10.566, 1587811150566
25, 1122.73, 427.84, 586.94, 857.33, 0.032, 0.000, -1.040, 12:39:10.581, 1587811150581
26, 1130.52, 425.22, 614.02, 848.12, 0.032, 0.000, -1.024, 12:39:10.581, 1587811150581
27, 1178.30, 474.19, 626.66, 841.77, 0.032, 0.000, -1.024, 12:39:10.614, 1587811150614
28, 1167.92, 475.51, 600.13, 849.85, 0.032, 0.000, -1.024, 12:39:10.614, 1587811150614
29, 1116.58, 416.83, 572.47, 856.11, 0.032, 0.000, -1.024, 12:39:10.615, 1587811150615
30, 1126.48, 421.04, 602.27, 849.78, 0.032, 0.000, -1.024, 12:39:10.615, 1587811150615
31, 1170.57, 474.40, 625.71, 845.89, 0.032, 0.000, -1.024, 12:39:10.615, 1587811150615
32, 1158.61, 473.02, 594.53, 852.43, 0.032, 0.000, -1.024, 12:39:10.615, 1587811150615
33, 1110.93, 414.02, 572.17, 855.50, 0.032, 0.000, -1.024, 12:39:10.616, 1587811150616
34, 1123.95, 420.51, 603.15, 842.73, 0.032, 0.000, -1.024, 12:39:10.616, 1587811150616
35, 1166.60, 470.87, 617.52, 842.75, 0.032, 0.000, -1.024, 12:39:10.626, 1587811150626
36, 1157.14, 466.44, 591.10, 855.20, 0.032, 0.000, -1.024, 12:39:10.626, 1587811150626
37, 1112.65, 413.39, 571.04, 854.70, 0.032, 0.000, -1.024, 12:39:10.640, 1587811150640
38, 1122.52, 415.90, 602.62, 843.70, 0.032, 0.000, -1.024, 12:39:10.640, 1587811150640
39, 1171.03, 472.25, 618.55, 844.99, 0.032, 0.000, -1.024, 12:39:10.657, 1587811150657
40, 1163.07, 466.70, 596.44, 854.63, 0.032, 0.000, -1.024, 12:39:10.657, 1587811150657
41, 1117.00, 416.39, 576.86, 852.49, 0.032, 0.000, -1.024, 12:39:10.657, 1587811150657
42, 1128.07, 419.12, 604.59, 843.68, 0.032, 0.000, -1.024, 12:39:10.657, 1587811150657
43, 1178.09, 477.47, 624.02, 841.71, 0.032, 0.000, -1.024, 12:39:10.671, 1587811150671
44, 1167.51, 468.09, 597.76, 851.12, 0.032, 0.000, -1.024, 12:39:10.671, 1587811150671
45, 1114.38, 415.34, 573.55, 851.38, 0.032, 0.000, -1.024, 12:39:10.687, 1587811150687
46, 1129.46, 421.47, 603.49, 845.10, 0.032, 0.000, -1.024, 12:39:10.687, 1587811150687
47, 1172.78, 476.03, 627.69, 848.44, 0.032, 0.000, -1.024, 12:39:10.688, 1587811150688
48, 1162.71, 474.97, 601.00, 856.82, 0.032, 0.000, -1.024, 12:39:10.688, 1587811150688
49, 1117.63, 416.62, 579.88, 861.00, 0.032, 0.000, -1.024, 12:39:10.701, 1587811150701
50, 1128.91, 422.59, 608.23, 847.77, 0.032, 0.000, -1.024, 12:39:10.701, 1587811150701
51, 1181.63, 481.15, 631.51, 849.54, 0.032, 0.000, -1.024, 12:39:10.733, 1587811150733
52, 1174.98, 478.24, 606.16, 857.89, 0.032, 0.000, -1.024, 12:39:10.733, 1587811150733
53, 1117.08, 422.88, 582.12, 861.98, 0.032, 0.000, -1.024, 12:39:10.733, 1587811150733
54, 1127.48, 421.08, 604.03, 848.33, 0.032, 0.000, -1.024, 12:39:10.733, 1587811150733
55, 1176.59, 479.93, 628.90, 844.09, 0.032, 0.000, -1.024, 12:39:10.734, 1587811150734
56, 1161.88, 474.07, 597.03, 858.93, 0.032, 0.000, -1.024, 12:39:10.734, 1587811150734
57, 1113.86, 420.10, 571.63, 856.57, 0.032, 0.000, -1.024, 12:39:10.735, 1587811150735
58, 1131.55, 427.39, 604.09, 848.92, 0.032, 0.000, -1.024, 12:39:10.735, 1587811150735
59, 1180.34, 479.70, 626.92, 844.23, 0.032, 0.000, -1.024, 12:39:10.746, 1587811150746
60, 1164.78, 474.32, 597.81, 856.29, 0.032, 0.000, -1.024, 12:39:10.746, 1587811150746
61, 1118.58, 415.73, 575.21, 855.95, 0.032, 0.000, -1.024, 12:39:10.761, 1587811150761
62, 1125.80, 417.73, 601.00, 848.34, 0.032, 0.000, -1.024, 12:39:10.761, 1587811150761
63, 1173.98, 473.56, 620.86, 843.03, 0.032, 0.000, -1.024, 12:39:10.776, 1587811150776
64, 1164.76, 475.32, 595.17, 850.64, 0.032, 0.000, -1.024, 12:39:10.776, 1587811150776
65, 1111.01, 412.19, 565.40, 855.54, 0.032, 0.000, -1.024, 12:39:10.777, 1587811150777
66, 1122.73, 418.30, 594.17, 841.67, 0.032, 0.000, -1.040, 12:39:10.777, 1587811150777
67, 1169.95, 468.47, 614.88, 837.17, 0.032, 0.000, -1.040, 12:39:10.792, 1587811150792
68, 1158.03, 463.82, 590.03, 844.07, 0.032, 0.000, -1.040, 12:39:10.792, 1587811150792
69, 1115.17, 407.24, 563.27, 849.14, 0.032, 0.000, -1.040, 12:39:10.806, 1587811150806
70, 1124.23, 409.43, 592.05, 834.52, 0.032, 0.000, -1.040, 12:39:10.806, 1587811150806
71, 1172.05, 466.83, 610.68, 836.24, 0.032, 0.000, -1.040, 12:39:10.807, 1587811150807
72, 1158.13, 468.37, 592.61, 851.18, 0.032, 0.000, -1.040, 12:39:10.807, 1587811150807
73, 1111.67, 411.13, 570.49, 856.00, 0.032, 0.000, -1.040, 12:39:10.822, 1587811150822
74, 1125.67, 416.93, 599.98, 843.64, 0.032, 0.000, -1.040, 12:39:10.822, 1587811150822
75, 1166.90, 471.00, 620.79, 847.50, 0.032, 0.000, -1.040, 12:39:10.836, 1587811150836
76, 1159.51, 468.77, 594.36, 853.87, 0.032, 0.000, -1.040, 12:39:10.836, 1587811150836
77, 1118.36, 418.21, 574.06, 853.39, 0.032, 0.000, -1.040, 12:39:10.837, 1587811150837
78, 1123.27, 415.80, 601.84, 843.53, 0.032, 0.000, -1.040, 12:39:10.837, 1587811150837
79, 1180.79, 477.44, 625.74, 842.84, 0.032, 0.000, -1.040, 12:39:10.851, 1587811150851
80, 1158.08, 474.36, 593.42, 853.07, 0.032, 0.000, -1.040, 12:39:10.851, 1587811150851
81, 1120.18, 421.68, 577.08, 857.56, 0.032, 0.000, -1.040, 12:39:10.866, 1587811150866
82, 1130.36, 420.19, 600.55, 846.19, 0.032, 0.000, -1.040, 12:39:10.866, 1587811150866
83, 1172.65, 475.33, 619.93, 845.23, 0.032, 0.000, -1.040, 12:39:10.867, 1587811150867
84, 1162.63, 474.13, 596.27, 856.49, 0.032, 0.000, -1.040, 12:39:10.867, 1587811150867
85, 1113.33, 424.09, 578.65, 856.98, 0.032, 0.000, -1.040, 12:39:10.881, 1587811150881
86, 1124.35, 421.83, 602.20, 843.12, 0.032, 0.000, -1.040, 12:39:10.881, 1587811150881
87, 1171.03, 481.46, 629.57, 839.56, 0.032, 0.000, -1.040, 12:39:10.897, 1587811150897
88, 1163.94, 477.04, 598.02, 852.10, 0.032, 0.000, -1.040, 12:39:10.898, 1587811150898
89, 1118.91, 429.47, 582.89, 853.47, 0.032, 0.000, -1.040, 12:39:10.898, 1587811150898
90, 1132.10, 433.85, 610.45, 847.62, 0.032, 0.000, -1.040, 12:39:10.898, 1587811150898
91, 1179.86, 487.35, 632.83, 848.31, 0.032, 0.000, -1.040, 12:39:10.911, 1587811150911
92, 1174.17, 483.35, 604.98, 853.79, 0.032, 0.000, -1.040, 12:39:10.911, 1587811150911
93, 1123.85, 431.24, 588.41, 863.00, 0.032, 0.000, -1.040, 12:39:10.926, 1587811150926
94, 1132.92, 431.10, 610.89, 848.10, 0.032, 0.000, -1.040, 12:39:10.926, 1587811150926
95, 1177.04, 484.78, 627.28, 842.29, 0.032, 0.000, -1.040, 12:39:10.927, 1587811150927
96, 1163.46, 479.84, 594.88, 853.40, 0.032, 0.000, -1.040, 12:39:10.927, 1587811150927
97, 1121.56, 429.00, 581.49, 854.71, 0.032, 0.000, -1.040, 12:39:10.942, 1587811150942
98, 1132.26, 429.30, 604.35, 845.73, 0.032, 0.000, -1.040, 12:39:10.942, 1587811150942
99, 1178.06, 487.60, 630.56, 843.93, 0.032, 0.000, -1.040, 12:39:10.956, 1587811150956
100, 1170.53, 485.94, 605.69, 856.89, 0.032, 0.000, -1.040, 12:39:10.956, 1587811150956
101, 1119.30, 428.93, 581.22, 857.85, 0.032, 0.000, -1.040, 12:39:10.957, 1587811150957
102, 1129.10, 432.24, 605.38, 848.33, 0.032, 0.000, -1.040, 12:39:10.957, 1587811150957
103, 1178.23, 486.93, 626.17, 849.07, 0.032, 0.000, -1.040, 12:39:10.971, 1587811150971
104, 1162.08, 476.89, 596.57, 856.95, 0.032, 0.000, -1.040, 12:39:10.971, 1587811150971
105, 1115.15, 423.94, 574.12, 856.94, 0.032, 0.000, -1.040, 12:39:10.986, 1587811150986
106, 1126.06, 423.94, 598.97, 848.36, 0.048, 0.000, -1.024, 12:39:10.986, 1587811150986
107, 1165.70, 478.70, 624.57, 844.10, 0.048, 0.000, -1.024, 12:39:10.987, 1587811150987
108, 1155.21, 474.10, 594.38, 852.71, 0.048, 0.000, -1.024, 12:39:10.987, 1587811150987
109, 1111.94, 420.41, 568.89, 858.70, 0.048, 0.000, -1.024, 12:39:11.001, 1587811151001
110, 1118.65, 421.31, 591.01, 847.96, 0.048, 0.000, -1.024, 12:39:11.001, 1587811151001
111, 1171.37, 481.78, 618.59, 847.90, 0.048, 0.000, -1.024, 12:39:11.016, 1587811151016
112, 1162.65, 477.67, 589.52, 854.89, 0.048, 0.000, -1.024, 12:39:11.016, 1587811151016
113, 1114.34, 428.06, 572.47, 858.40, 0.048, 0.000, -1.024, 12:39:11.017, 1587811151017
114, 1128.88, 431.59, 607.11, 851.53, 0.048, 0.000, -1.024, 12:39:11.017, 1587811151017
115, 1172.44, 487.50, 628.49, 850.19, 0.048, 0.000, -1.024, 12:39:11.031, 1587811151031
116, 1167.55, 487.03, 600.08, 862.46, 0.048, 0.000, -1.024, 12:39:11.031, 1587811151031
117, 1117.75, 430.94, 577.57, 863.19, 0.048, 0.000, -1.024, 12:39:11.047, 1587811151047
118, 1124.91, 428.87, 603.57, 851.66, 0.048, 0.000, -1.024, 12:39:11.047, 1587811151047
119, 1174.96, 489.17, 627.26, 851.40, 0.048, 0.000, -1.024, 12:39:11.047, 1587811151047
120, 1163.91, 488.02, 602.76, 862.22, 0.048, 0.000, -1.024, 12:39:11.047, 1587811151047
121, 1121.24, 437.40, 590.17, 870.57, 0.048, 0.000, -1.024, 12:39:11.061, 1587811151061
122, 1134.48, 444.68, 618.22, 864.18, 0.048, 0.000, -1.024, 12:39:11.061, 1587811151061
123, 1179.50, 493.94, 635.51, 860.74, 0.048, 0.000, -1.024, 12:39:11.091, 1587811151091
124, 1173.06, 495.23, 612.72, 872.64, 0.048, 0.000, -1.024, 12:39:11.091, 1587811151091
125, 1125.22, 441.52, 592.29, 872.45, 0.048, 0.000, -1.024, 12:39:11.108, 1587811151108
126, 1134.65, 439.22, 613.53, 859.20, 0.032, 0.000, -1.024, 12:39:11.108, 1587811151108
127, 1175.23, 486.88, 629.77, 853.88, 0.032, 0.000, -1.024, 12:39:11.109, 1587811151109
128, 1170.49, 484.61, 600.34, 861.97, 0.032, 0.000, -1.024, 12:39:11.109, 1587811151109
129, 1116.43, 418.03, 570.68, 857.27, 0.032, 0.000, -1.024, 12:39:11.110, 1587811151110
130, 1125.46, 421.87, 597.09, 846.88, 0.032, 0.000, -1.024, 12:39:11.110, 1587811151110
131, 1170.42, 478.88, 622.95, 847.05, 0.032, 0.000, -1.024, 12:39:11.110, 1587811151110
132, 1160.91, 478.71, 595.30, 857.46, 0.032, 0.000, -1.024, 12:39:11.110, 1587811151110
133, 1114.19, 422.02, 574.22, 856.76, 0.032, 0.000, -1.024, 12:39:11.121, 1587811151121
134, 1122.55, 420.26, 598.04, 846.10, 0.032, 0.000, -1.024, 12:39:11.121, 1587811151121
135, 1172.14, 487.71, 627.53, 845.03, 0.032, 0.000, -1.024, 12:39:11.136, 1587811151136
136, 1161.38, 478.17, 595.53, 858.77, 0.032, 0.000, -1.024, 12:39:11.136, 1587811151136
137, 1117.12, 424.46, 571.06, 858.88, 0.032, 0.000, -1.024, 12:39:11.137, 1587811151137
138, 1127.35, 428.14, 599.23, 849.29, 0.032, 0.000, -1.024, 12:39:11.137, 1587811151137
139, 1174.18, 482.03, 629.10, 848.81, 0.032, 0.000, -1.024, 12:39:11.167, 1587811151167
140, 1160.24, 472.22, 595.84, 856.08, 0.032, 0.000, -1.024, 12:39:11.167, 1587811151167
141, 1115.86, 429.38, 581.06, 861.20, 0.032, 0.000, -1.024, 12:39:11.168, 1587811151168
142, 1129.06, 432.04, 605.96, 850.65, 0.032, 0.000, -1.024, 12:39:11.168, 1587811151168
143, 1174.71, 479.30, 629.46, 849.15, 0.032, 0.000, -1.024, 12:39:11.168, 1587811151168
144, 1170.27, 473.65, 602.36, 852.59, 0.032, 0.000, -1.024, 12:39:11.168, 1587811151168
145, 1118.81, 424.32, 578.58, 858.44, 0.032, 0.000, -1.024, 12:39:11.181, 1587811151181
146, 1124.08, 419.25, 598.42, 840.72, 0.032, 0.000, -1.040, 12:39:11.181, 1587811151181
147, 1174.71, 476.44, 625.88, 840.31, 0.032, 0.000, -1.040, 12:39:11.196, 1587811151196
148, 1164.90, 482.72, 600.73, 848.10, 0.032, 0.000, -1.040, 12:39:11.196, 1587811151196
149, 1123.78, 423.33, 577.20, 848.21, 0.032, 0.000, -1.040, 12:39:11.197, 1587811151197
150, 1132.76, 427.25, 607.76, 841.75, 0.032, 0.000, -1.040, 12:39:11.197, 1587811151197
151, 1180.58, 484.98, 631.64, 842.44, 0.032, 0.000, -1.040, 12:39:11.228, 1587811151228
152, 1170.08, 485.27, 610.03, 854.18, 0.032, 0.000, -1.040, 12:39:11.228, 1587811151228
153, 1123.33, 427.01, 584.82, 859.41, 0.032, 0.000, -1.040, 12:39:11.229, 1587811151229
154, 1128.92, 425.15, 610.28, 846.56, 0.032, 0.000, -1.040, 12:39:11.229, 1587811151229
155, 1177.45, 484.02, 633.47, 845.02, 0.032, 0.000, -1.040, 12:39:11.229, 1587811151229
156, 1166.99, 480.72, 606.34, 859.97, 0.032, 0.000, -1.040, 12:39:11.229, 1587811151229
157, 1117.76, 420.90, 578.20, 854.18, 0.032, 0.000, -1.040, 12:39:11.241, 1587811151241
158, 1124.75, 424.37, 604.34, 849.42, 0.032, 0.000, -1.040, 12:39:11.241, 1587811151241
159, 1172.90, 478.70, 630.26, 843.32, 0.032, 0.000, -1.040, 12:39:11.256, 1587811151256
160, 1165.32, 479.19, 601.07, 850.39, 0.032, 0.000, -1.040, 12:39:11.256, 1587811151256
161, 1110.49, 420.03, 575.94, 855.63, 0.032, 0.000, -1.040, 12:39:11.257, 1587811151257
162, 1126.59, 426.95, 606.16, 844.07, 0.032, 0.000, -1.040, 12:39:11.257, 1587811151257
